# Copyright 2008, 2009 The GLoBES Team
#
# If you modify this file you have to rename it.
#
# This flux corresponds to the ME beam tune and is taken from
#
# M. Messier http://enrico1.physics.indiana.edu/messier/off-axis/spectra/
#
   0.000 0.2792E-01 0.9564E+00 0.0000E+00 0.5928E-02 0.9798E+00 0.0000E+00
   0.060 0.1672E+01 0.6209E+02 0.0000E+00 0.4557E+00 0.7316E+02 0.0000E+00
   0.120 0.7947E+01 0.2387E+03 0.0000E+00 0.1417E+01 0.3977E+03 0.0000E+00
   0.180 0.1348E+02 0.4474E+03 0.0000E+00 0.3442E+01 0.7456E+03 0.0000E+00
   0.240 0.1639E+02 0.6790E+03 0.0000E+00 0.7390E+01 0.8439E+03 0.0000E+00
   0.300 0.2927E+02 0.9303E+03 0.0000E+00 0.1228E+02 0.8042E+03 0.0000E+00
   0.360 0.4823E+02 0.1249E+04 0.0000E+00 0.1741E+02 0.8490E+03 0.0000E+00
   0.420 0.6856E+02 0.1774E+04 0.0000E+00 0.2262E+02 0.9652E+03 0.0000E+00
   0.480 0.8903E+02 0.2457E+04 0.0000E+00 0.2791E+02 0.1112E+04 0.0000E+00
   0.540 0.1087E+03 0.3233E+04 0.0000E+00 0.3340E+02 0.1272E+04 0.0000E+00
   0.600 0.1246E+03 0.4075E+04 0.0000E+00 0.3990E+02 0.1436E+04 0.0000E+00
   0.660 0.1327E+03 0.4996E+04 0.0000E+00 0.4671E+02 0.1607E+04 0.0000E+00
   0.720 0.1371E+03 0.5985E+04 0.0000E+00 0.4816E+02 0.1807E+04 0.0000E+00
   0.780 0.1406E+03 0.7148E+04 0.0000E+00 0.4658E+02 0.2058E+04 0.0000E+00
   0.840 0.1442E+03 0.8397E+04 0.0000E+00 0.4440E+02 0.2275E+04 0.0000E+00
   0.900 0.1489E+03 0.8943E+04 0.0000E+00 0.4243E+02 0.2359E+04 0.0000E+00
   0.960 0.1591E+03 0.9321E+04 0.0000E+00 0.4208E+02 0.2376E+04 0.0000E+00
   1.020 0.1774E+03 0.1016E+05 0.0000E+00 0.4936E+02 0.2377E+04 0.0000E+00
   1.080 0.1897E+03 0.1123E+05 0.0000E+00 0.6477E+02 0.2368E+04 0.0000E+00
   1.140 0.1973E+03 0.1238E+05 0.0000E+00 0.6124E+02 0.2351E+04 0.0000E+00
   1.200 0.2041E+03 0.1399E+05 0.0000E+00 0.4991E+02 0.2319E+04 0.0000E+00
   1.260 0.2109E+03 0.1657E+05 0.0000E+00 0.4541E+02 0.2239E+04 0.0000E+00
   1.320 0.2183E+03 0.1948E+05 0.0000E+00 0.4486E+02 0.2165E+04 0.0000E+00
   1.380 0.2270E+03 0.2271E+05 0.0000E+00 0.4521E+02 0.2316E+04 0.0000E+00
   1.440 0.2368E+03 0.2794E+05 0.0000E+00 0.4583E+02 0.2315E+04 0.0000E+00
   1.500 0.2473E+03 0.3479E+05 0.0000E+00 0.4671E+02 0.2199E+04 0.0000E+00
   1.560 0.2582E+03 0.4407E+05 0.0000E+00 0.4835E+02 0.2127E+04 0.0000E+00
   1.620 0.2693E+03 0.5807E+05 0.0000E+00 0.5360E+02 0.2172E+04 0.0000E+00
   1.680 0.2806E+03 0.7309E+05 0.0000E+00 0.5869E+02 0.2188E+04 0.0000E+00
   1.740 0.2935E+03 0.8969E+05 0.0000E+00 0.4250E+02 0.2168E+04 0.0000E+00
   1.800 0.3045E+03 0.1046E+06 0.0000E+00 0.3371E+02 0.2139E+04 0.0000E+00
   1.860 0.2990E+03 0.1155E+06 0.0000E+00 0.5650E+02 0.2106E+04 0.0000E+00
   1.920 0.2850E+03 0.1210E+06 0.0000E+00 0.4838E+02 0.2069E+04 0.0000E+00
   1.980 0.2710E+03 0.1192E+06 0.0000E+00 0.3417E+02 0.2028E+04 0.0000E+00
   2.040 0.2659E+03 0.1106E+06 0.0000E+00 0.4236E+02 0.1982E+04 0.0000E+00
   2.100 0.2755E+03 0.9838E+05 0.0000E+00 0.3589E+02 0.1931E+04 0.0000E+00
   2.160 0.2769E+03 0.8296E+05 0.0000E+00 0.3696E+02 0.1877E+04 0.0000E+00
   2.220 0.2715E+03 0.6651E+05 0.0000E+00 0.4593E+02 0.1820E+04 0.0000E+00
   2.280 0.2648E+03 0.5169E+05 0.0000E+00 0.5375E+02 0.1761E+04 0.0000E+00
   2.340 0.2591E+03 0.4054E+05 0.0000E+00 0.4820E+02 0.1702E+04 0.0000E+00
   2.400 0.2558E+03 0.3154E+05 0.0000E+00 0.2866E+02 0.1645E+04 0.0000E+00
   2.460 0.2539E+03 0.2514E+05 0.0000E+00 0.3195E+02 0.1592E+04 0.0000E+00
   2.520 0.2527E+03 0.1970E+05 0.0000E+00 0.3332E+02 0.1543E+04 0.0000E+00
   2.580 0.2535E+03 0.1592E+05 0.0000E+00 0.6597E+02 0.1496E+04 0.0000E+00
   2.640 0.2627E+03 0.1324E+05 0.0000E+00 0.3681E+02 0.1451E+04 0.0000E+00
   2.700 0.2862E+03 0.1107E+05 0.0000E+00 0.2218E+02 0.1405E+04 0.0000E+00
   2.760 0.2892E+03 0.9377E+04 0.0000E+00 0.7066E+02 0.1360E+04 0.0000E+00
   2.820 0.2373E+03 0.7985E+04 0.0000E+00 0.2296E+02 0.1315E+04 0.0000E+00
   2.880 0.2097E+03 0.6829E+04 0.0000E+00 0.2929E+02 0.1270E+04 0.0000E+00
   2.940 0.2542E+03 0.5878E+04 0.0000E+00 0.4003E+02 0.1226E+04 0.0000E+00
   3.000 0.2335E+03 0.5180E+04 0.0000E+00 0.3495E+02 0.1182E+04 0.0000E+00
   3.060 0.2140E+03 0.4609E+04 0.0000E+00 0.2743E+02 0.1141E+04 0.0000E+00
   3.120 0.2118E+03 0.4085E+04 0.0000E+00 0.2486E+02 0.1111E+04 0.0000E+00
   3.180 0.2127E+03 0.3612E+04 0.0000E+00 0.3369E+02 0.1096E+04 0.0000E+00
   3.240 0.2122E+03 0.3307E+04 0.0000E+00 0.4263E+02 0.1067E+04 0.0000E+00
   3.300 0.2014E+03 0.3227E+04 0.0000E+00 0.4190E+02 0.1027E+04 0.0000E+00
   3.360 0.1792E+03 0.2978E+04 0.0000E+00 0.3333E+02 0.9865E+03 0.0000E+00
   3.420 0.1802E+03 0.2709E+04 0.0000E+00 0.2634E+02 0.9464E+03 0.0000E+00
   3.480 0.1800E+03 0.2480E+04 0.0000E+00 0.2522E+02 0.9120E+03 0.0000E+00
   3.540 0.1535E+03 0.2290E+04 0.0000E+00 0.2801E+02 0.9048E+03 0.0000E+00
   3.600 0.1352E+03 0.2166E+04 0.0000E+00 0.3242E+02 0.9155E+03 0.0000E+00
   3.660 0.1262E+03 0.2074E+04 0.0000E+00 0.3701E+02 0.8429E+03 0.0000E+00
   3.720 0.1199E+03 0.1991E+04 0.0000E+00 0.3938E+02 0.7896E+03 0.0000E+00
   3.780 0.1167E+03 0.1914E+04 0.0000E+00 0.2986E+02 0.7642E+03 0.0000E+00
   3.840 0.1255E+03 0.1844E+04 0.0000E+00 0.2347E+02 0.7450E+03 0.0000E+00
   3.900 0.1454E+03 0.1781E+04 0.0000E+00 0.6878E+02 0.7273E+03 0.0000E+00
   3.960 0.1365E+03 0.1727E+04 0.0000E+00 0.4961E+02 0.7101E+03 0.0000E+00
   4.020 0.1256E+03 0.1679E+04 0.0000E+00 0.1702E+02 0.6929E+03 0.0000E+00
   4.080 0.1196E+03 0.1632E+04 0.0000E+00 0.4454E+02 0.6749E+03 0.0000E+00
   4.140 0.1145E+03 0.1588E+04 0.0000E+00 0.5551E+02 0.6533E+03 0.0000E+00
   4.200 0.1095E+03 0.1545E+04 0.0000E+00 0.1274E+02 0.6205E+03 0.0000E+00
   4.260 0.1040E+03 0.1503E+04 0.0000E+00 0.4872E+02 0.6039E+03 0.0000E+00
   4.320 0.9828E+02 0.1468E+04 0.0000E+00 0.3162E+02 0.6361E+03 0.0000E+00
   4.380 0.9230E+02 0.1458E+04 0.0000E+00 0.1588E+02 0.5785E+03 0.0000E+00
   4.440 0.8588E+02 0.1471E+04 0.0000E+00 0.1772E+02 0.5398E+03 0.0000E+00
   4.500 0.8491E+02 0.1403E+04 0.0000E+00 0.2306E+02 0.5323E+03 0.0000E+00
   4.560 0.1025E+03 0.1313E+04 0.0000E+00 0.2783E+02 0.5316E+03 0.0000E+00
   4.620 0.1080E+03 0.1273E+04 0.0000E+00 0.2977E+02 0.5322E+03 0.0000E+00
   4.680 0.8036E+02 0.1263E+04 0.0000E+00 0.3037E+02 0.5318E+03 0.0000E+00
   4.740 0.7962E+02 0.1271E+04 0.0000E+00 0.3105E+02 0.5271E+03 0.0000E+00
   4.800 0.9373E+02 0.1286E+04 0.0000E+00 0.3188E+02 0.5169E+03 0.0000E+00
   4.860 0.9917E+02 0.1233E+04 0.0000E+00 0.3093E+02 0.5043E+03 0.0000E+00
   4.920 0.9929E+02 0.1143E+04 0.0000E+00 0.2893E+02 0.4912E+03 0.0000E+00
   4.980 0.9818E+02 0.1051E+04 0.0000E+00 0.2670E+02 0.4785E+03 0.0000E+00
   5.040 0.9655E+02 0.9975E+03 0.0000E+00 0.2444E+02 0.4668E+03 0.0000E+00
   5.100 0.9385E+02 0.1025E+04 0.0000E+00 0.2221E+02 0.4556E+03 0.0000E+00
   5.160 0.9014E+02 0.1073E+04 0.0000E+00 0.2015E+02 0.4444E+03 0.0000E+00
   5.220 0.8913E+02 0.1089E+04 0.0000E+00 0.2002E+02 0.4328E+03 0.0000E+00
   5.280 0.9024E+02 0.1068E+04 0.0000E+00 0.2430E+02 0.4201E+03 0.0000E+00
   5.340 0.9163E+02 0.1026E+04 0.0000E+00 0.2652E+02 0.4029E+03 0.0000E+00
   5.400 0.9148E+02 0.9860E+03 0.0000E+00 0.2685E+02 0.3647E+03 0.0000E+00
   5.460 0.8908E+02 0.1001E+04 0.0000E+00 0.2680E+02 0.3081E+03 0.0000E+00
   5.520 0.8931E+02 0.1067E+04 0.0000E+00 0.2667E+02 0.3183E+03 0.0000E+00
   5.580 0.9134E+02 0.9713E+03 0.0000E+00 0.2659E+02 0.3641E+03 0.0000E+00
   5.640 0.9372E+02 0.9526E+03 0.0000E+00 0.2662E+02 0.3963E+03 0.0000E+00
   5.700 0.9605E+02 0.1137E+04 0.0000E+00 0.2691E+02 0.3806E+03 0.0000E+00
   5.760 0.9801E+02 0.9872E+03 0.0000E+00 0.2772E+02 0.3209E+03 0.0000E+00
   5.820 0.9860E+02 0.9244E+03 0.0000E+00 0.2927E+02 0.2759E+03 0.0000E+00
   5.880 0.9333E+02 0.9838E+03 0.0000E+00 0.3080E+02 0.3366E+03 0.0000E+00
   5.940 0.7981E+02 0.1054E+04 0.0000E+00 0.2824E+02 0.2563E+03 0.0000E+00
   6.000 0.7421E+02 0.1059E+04 0.0000E+00 0.1961E+02 0.3377E+03 0.0000E+00
   6.060 0.7621E+02 0.9486E+03 0.0000E+00 0.1890E+02 0.4382E+03 0.0000E+00
   6.120 0.8982E+02 0.8749E+03 0.0000E+00 0.2716E+02 0.3373E+03 0.0000E+00
   6.180 0.1053E+03 0.8408E+03 0.0000E+00 0.4008E+02 0.2889E+03 0.0000E+00
   6.240 0.7711E+02 0.8162E+03 0.0000E+00 0.4063E+02 0.3916E+03 0.0000E+00
   6.300 0.7087E+02 0.7968E+03 0.0000E+00 0.3380E+02 0.2602E+03 0.0000E+00
   6.360 0.8375E+02 0.7904E+03 0.0000E+00 0.2569E+02 0.4439E+03 0.0000E+00
   6.420 0.9647E+02 0.8408E+03 0.0000E+00 0.1802E+02 0.3120E+03 0.0000E+00
   6.480 0.1001E+03 0.8909E+03 0.0000E+00 0.1204E+02 0.2128E+03 0.0000E+00
   6.540 0.8765E+02 0.7821E+03 0.0000E+00 0.9485E+01 0.2224E+03 0.0000E+00
   6.600 0.6396E+02 0.8957E+03 0.0000E+00 0.1243E+02 0.2553E+03 0.0000E+00
   6.660 0.6050E+02 0.6930E+03 0.0000E+00 0.2256E+02 0.2883E+03 0.0000E+00
   6.720 0.9356E+02 0.7862E+03 0.0000E+00 0.3677E+02 0.3045E+03 0.0000E+00
   6.780 0.7912E+02 0.8507E+03 0.0000E+00 0.3995E+02 0.3094E+03 0.0000E+00
   6.840 0.5462E+02 0.8141E+03 0.0000E+00 0.2449E+02 0.3059E+03 0.0000E+00
   6.900 0.7300E+02 0.7614E+03 0.0000E+00 0.2588E+02 0.2916E+03 0.0000E+00
   6.960 0.9267E+02 0.7304E+03 0.0000E+00 0.1799E+02 0.2712E+03 0.0000E+00
   7.020 0.7859E+02 0.7532E+03 0.0000E+00 0.1196E+02 0.2568E+03 0.0000E+00
   7.080 0.7525E+02 0.8013E+03 0.0000E+00 0.2393E+02 0.2527E+03 0.0000E+00
   7.140 0.7823E+02 0.8512E+03 0.0000E+00 0.2629E+02 0.2553E+03 0.0000E+00
   7.200 0.8015E+02 0.8846E+03 0.0000E+00 0.2086E+02 0.2608E+03 0.0000E+00
   7.260 0.8063E+02 0.8362E+03 0.0000E+00 0.1536E+02 0.2673E+03 0.0000E+00
   7.320 0.7815E+02 0.7308E+03 0.0000E+00 0.1334E+02 0.2734E+03 0.0000E+00
   7.380 0.7124E+02 0.8400E+03 0.0000E+00 0.1712E+02 0.2756E+03 0.0000E+00
   7.440 0.6273E+02 0.8257E+03 0.0000E+00 0.2321E+02 0.2591E+03 0.0000E+00
   7.500 0.5910E+02 0.7804E+03 0.0000E+00 0.2371E+02 0.2172E+03 0.0000E+00
   7.560 0.6231E+02 0.7574E+03 0.0000E+00 0.1830E+02 0.2041E+03 0.0000E+00
   7.620 0.6888E+02 0.7400E+03 0.0000E+00 0.1428E+02 0.2109E+03 0.0000E+00
   7.680 0.7273E+02 0.7272E+03 0.0000E+00 0.1496E+02 0.2208E+03 0.0000E+00
   7.740 0.6884E+02 0.7305E+03 0.0000E+00 0.1817E+02 0.2254E+03 0.0000E+00
   7.800 0.6503E+02 0.7615E+03 0.0000E+00 0.2103E+02 0.2166E+03 0.0000E+00
   7.860 0.6347E+02 0.7658E+03 0.0000E+00 0.2131E+02 0.2025E+03 0.0000E+00
   7.920 0.6277E+02 0.7602E+03 0.0000E+00 0.1870E+02 0.1900E+03 0.0000E+00
   7.980 0.6231E+02 0.8839E+03 0.0000E+00 0.1462E+02 0.1822E+03 0.0000E+00
   8.040 0.6195E+02 0.8089E+03 0.0000E+00 0.1101E+02 0.1796E+03 0.0000E+00
   8.100 0.6163E+02 0.6982E+03 0.0000E+00 0.9704E+01 0.1801E+03 0.0000E+00
   8.160 0.6133E+02 0.7716E+03 0.0000E+00 0.9631E+01 0.1819E+03 0.0000E+00
   8.220 0.6101E+02 0.8480E+03 0.0000E+00 0.1011E+02 0.1840E+03 0.0000E+00
   8.280 0.6056E+02 0.8267E+03 0.0000E+00 0.1134E+02 0.1847E+03 0.0000E+00
   8.340 0.5928E+02 0.7631E+03 0.0000E+00 0.1368E+02 0.1768E+03 0.0000E+00
   8.400 0.5375E+02 0.6999E+03 0.0000E+00 0.1656E+02 0.1695E+03 0.0000E+00
   8.460 0.5474E+02 0.6817E+03 0.0000E+00 0.1859E+02 0.2030E+03 0.0000E+00
   8.520 0.8803E+02 0.7278E+03 0.0000E+00 0.1926E+02 0.2136E+03 0.0000E+00
   8.580 0.8984E+02 0.7070E+03 0.0000E+00 0.1907E+02 0.2036E+03 0.0000E+00
   8.640 0.7080E+02 0.6687E+03 0.0000E+00 0.1848E+02 0.1891E+03 0.0000E+00
   8.700 0.6085E+02 0.6893E+03 0.0000E+00 0.1768E+02 0.1745E+03 0.0000E+00
   8.760 0.7733E+02 0.7382E+03 0.0000E+00 0.1675E+02 0.1638E+03 0.0000E+00
   8.820 0.8806E+02 0.7813E+03 0.0000E+00 0.1570E+02 0.1620E+03 0.0000E+00
   8.880 0.6698E+02 0.7686E+03 0.0000E+00 0.1459E+02 0.1654E+03 0.0000E+00
   8.940 0.5501E+02 0.6734E+03 0.0000E+00 0.1346E+02 0.1749E+03 0.0000E+00
   9.000 0.5349E+02 0.6502E+03 0.0000E+00 0.1231E+02 0.1809E+03 0.0000E+00
   9.060 0.5426E+02 0.6882E+03 0.0000E+00 0.1116E+02 0.1466E+03 0.0000E+00
   9.120 0.5561E+02 0.7416E+03 0.0000E+00 0.1003E+02 0.1246E+03 0.0000E+00
   9.180 0.5715E+02 0.7579E+03 0.0000E+00 0.8930E+01 0.1573E+03 0.0000E+00
   9.240 0.5875E+02 0.7521E+03 0.0000E+00 0.7924E+01 0.1597E+03 0.0000E+00
   9.300 0.6031E+02 0.7416E+03 0.0000E+00 0.7211E+01 0.1449E+03 0.0000E+00
   9.360 0.6168E+02 0.7303E+03 0.0000E+00 0.7800E+01 0.1451E+03 0.0000E+00
   9.420 0.6221E+02 0.7193E+03 0.0000E+00 0.1459E+02 0.1535E+03 0.0000E+00
   9.480 0.6102E+02 0.7093E+03 0.0000E+00 0.1670E+02 0.1624E+03 0.0000E+00
   9.540 0.5898E+02 0.7011E+03 0.0000E+00 0.0000E+00 0.1691E+03 0.0000E+00
   9.600 0.5673E+02 0.6956E+03 0.0000E+00 0.2619E+02 0.1735E+03 0.0000E+00
   9.660 0.5440E+02 0.6936E+03 0.0000E+00 0.1853E+02 0.1762E+03 0.0000E+00
   9.720 0.5204E+02 0.6958E+03 0.0000E+00 0.9760E+01 0.1782E+03 0.0000E+00
   9.780 0.4967E+02 0.7022E+03 0.0000E+00 0.1073E+02 0.1795E+03 0.0000E+00
   9.840 0.4730E+02 0.7120E+03 0.0000E+00 0.1154E+02 0.1799E+03 0.0000E+00
   9.900 0.4495E+02 0.7242E+03 0.0000E+00 0.1169E+02 0.1769E+03 0.0000E+00
   9.960 0.4267E+02 0.7374E+03 0.0000E+00 0.1168E+02 0.1673E+03 0.0000E+00
  10.020 0.4063E+02 0.7494E+03 0.0000E+00 0.1154E+02 0.1550E+03 0.0000E+00
  10.080 0.3960E+02 0.7529E+03 0.0000E+00 0.1092E+02 0.1439E+03 0.0000E+00
  10.140 0.4319E+02 0.7141E+03 0.0000E+00 0.9334E+01 0.1408E+03 0.0000E+00
  10.200 0.4689E+02 0.6599E+03 0.0000E+00 0.7272E+01 0.1752E+03 0.0000E+00
  10.260 0.3765E+02 0.7383E+03 0.0000E+00 0.4938E+01 0.2282E+03 0.0000E+00
  10.320 0.5048E+02 0.7101E+03 0.0000E+00 0.1510E+01 0.1544E+03 0.0000E+00
  10.380 0.4214E+02 0.7067E+03 0.0000E+00 0.5043E+01 0.1316E+03 0.0000E+00
  10.440 0.3743E+02 0.7173E+03 0.0000E+00 0.2539E+02 0.1601E+03 0.0000E+00
  10.500 0.4052E+02 0.7182E+03 0.0000E+00 0.1911E+02 0.1863E+03 0.0000E+00
  10.560 0.4470E+02 0.7122E+03 0.0000E+00 0.1061E+02 0.1861E+03 0.0000E+00
  10.620 0.4787E+02 0.6970E+03 0.0000E+00 0.7149E+01 0.1725E+03 0.0000E+00
  10.680 0.4817E+02 0.6773E+03 0.0000E+00 0.5178E+01 0.1561E+03 0.0000E+00
  10.740 0.4362E+02 0.6765E+03 0.0000E+00 0.5397E+01 0.1405E+03 0.0000E+00
  10.800 0.3532E+02 0.7132E+03 0.0000E+00 0.1459E+02 0.1316E+03 0.0000E+00
  10.860 0.3061E+02 0.7335E+03 0.0000E+00 0.2006E+02 0.1307E+03 0.0000E+00
  10.920 0.3691E+02 0.7376E+03 0.0000E+00 0.3885E+01 0.1205E+03 0.0000E+00
  10.980 0.3699E+02 0.7370E+03 0.0000E+00 0.5121E+02 0.1196E+03 0.0000E+00
  11.040 0.2436E+02 0.7342E+03 0.0000E+00 0.1230E+02 0.1262E+03 0.0000E+00
  11.100 0.3547E+02 0.7303E+03 0.0000E+00 0.9323E+01 0.1339E+03 0.0000E+00
  11.160 0.3886E+02 0.7258E+03 0.0000E+00 0.1478E+02 0.1398E+03 0.0000E+00
  11.220 0.3323E+02 0.7211E+03 0.0000E+00 0.1116E+02 0.1305E+03 0.0000E+00
  11.280 0.2935E+02 0.7163E+03 0.0000E+00 0.7675E+01 0.1015E+03 0.0000E+00
  11.340 0.3299E+02 0.7117E+03 0.0000E+00 0.7588E+01 0.1188E+03 0.0000E+00
  11.400 0.3858E+02 0.7082E+03 0.0000E+00 0.1096E+02 0.1427E+03 0.0000E+00
  11.460 0.4122E+02 0.7071E+03 0.0000E+00 0.1499E+02 0.1284E+03 0.0000E+00
  11.520 0.4020E+02 0.7079E+03 0.0000E+00 0.1669E+02 0.1180E+03 0.0000E+00
  11.580 0.3704E+02 0.7095E+03 0.0000E+00 0.1712E+02 0.1164E+03 0.0000E+00
  11.640 0.3331E+02 0.7113E+03 0.0000E+00 0.1685E+02 0.1167E+03 0.0000E+00
  11.700 0.3146E+02 0.7134E+03 0.0000E+00 0.1417E+02 0.1175E+03 0.0000E+00
  11.760 0.2916E+02 0.7164E+03 0.0000E+00 0.8055E+01 0.1184E+03 0.0000E+00
  11.820 0.1944E+02 0.7236E+03 0.0000E+00 0.4911E+01 0.1194E+03 0.0000E+00
  11.880 0.2623E+02 0.7381E+03 0.0000E+00 0.3845E+01 0.1205E+03 0.0000E+00
  11.940 0.3371E+02 0.7443E+03 0.0000E+00 0.2481E+01 0.1215E+03 0.0000E+00
  12.000 0.3127E+02 0.7361E+03 0.0000E+00 0.2158E-01 0.1225E+03 0.0000E+00
  12.060 0.2494E+02 0.7444E+03 0.0000E+00 0.8882E+00 0.1235E+03 0.0000E+00
  12.120 0.2038E+02 0.7318E+03 0.0000E+00 0.7690E+01 0.1246E+03 0.0000E+00
  12.180 0.2127E+02 0.7156E+03 0.0000E+00 0.8748E+01 0.1255E+03 0.0000E+00
  12.240 0.2382E+02 0.7243E+03 0.0000E+00 0.5581E+01 0.1264E+03 0.0000E+00
  12.300 0.2462E+02 0.7449E+03 0.0000E+00 0.1853E+01 0.1272E+03 0.0000E+00
  12.360 0.2442E+02 0.7639E+03 0.0000E+00 0.4439E-01 0.1277E+03 0.0000E+00
  12.420 0.2399E+02 0.7645E+03 0.0000E+00 0.2629E+01 0.1274E+03 0.0000E+00
  12.480 0.2349E+02 0.7299E+03 0.0000E+00 0.6507E+01 0.1238E+03 0.0000E+00
  12.540 0.2296E+02 0.7113E+03 0.0000E+00 0.9086E+01 0.1056E+03 0.0000E+00
  12.600 0.2241E+02 0.7539E+03 0.0000E+00 0.9951E+01 0.7318E+02 0.0000E+00
  12.660 0.2184E+02 0.7905E+03 0.0000E+00 0.9754E+01 0.8057E+02 0.0000E+00
  12.720 0.2127E+02 0.8049E+03 0.0000E+00 0.9042E+01 0.9711E+02 0.0000E+00
  12.780 0.2068E+02 0.7987E+03 0.0000E+00 0.8080E+01 0.8794E+02 0.0000E+00
  12.840 0.2008E+02 0.7742E+03 0.0000E+00 0.6985E+01 0.1010E+03 0.0000E+00
  12.900 0.1946E+02 0.7441E+03 0.0000E+00 0.5817E+01 0.1551E+03 0.0000E+00
  12.960 0.1883E+02 0.7424E+03 0.0000E+00 0.4606E+01 0.1203E+03 0.0000E+00
  13.020 0.1818E+02 0.8058E+03 0.0000E+00 0.3378E+01 0.8282E+02 0.0000E+00
  13.080 0.1752E+02 0.8588E+03 0.0000E+00 0.2161E+01 0.1239E+03 0.0000E+00
  13.140 0.1683E+02 0.8373E+03 0.0000E+00 0.1031E+01 0.1164E+03 0.0000E+00
  13.200 0.1611E+02 0.7689E+03 0.0000E+00 0.2932E+00 0.9763E+02 0.0000E+00
  13.260 0.1537E+02 0.7383E+03 0.0000E+00 0.3685E+00 0.8705E+02 0.0000E+00
  13.320 0.1462E+02 0.7537E+03 0.0000E+00 0.8349E+00 0.7960E+02 0.0000E+00
  13.380 0.1394E+02 0.7474E+03 0.0000E+00 0.1379E+01 0.7937E+02 0.0000E+00
  13.440 0.1370E+02 0.7092E+03 0.0000E+00 0.1830E+01 0.8899E+02 0.0000E+00
  13.500 0.1445E+02 0.6927E+03 0.0000E+00 0.1963E+01 0.8980E+02 0.0000E+00
  13.560 0.1554E+02 0.7106E+03 0.0000E+00 0.1893E+01 0.8380E+02 0.0000E+00
  13.620 0.1645E+02 0.7254E+03 0.0000E+00 0.1551E+01 0.7719E+02 0.0000E+00
  13.680 0.1695E+02 0.7175E+03 0.0000E+00 0.3384E-01 0.7531E+02 0.0000E+00
  13.740 0.1686E+02 0.6954E+03 0.0000E+00 0.8229E-01 0.7616E+02 0.0000E+00
  13.800 0.1607E+02 0.6752E+03 0.0000E+00 0.8003E+01 0.7819E+02 0.0000E+00
  13.860 0.1458E+02 0.6684E+03 0.0000E+00 0.6545E+01 0.8287E+02 0.0000E+00
  13.920 0.1253E+02 0.6590E+03 0.0000E+00 0.9632E+00 0.9274E+02 0.0000E+00
  13.980 0.1011E+02 0.6454E+03 0.0000E+00 0.0000E+00 0.1049E+03 0.0000E+00
  14.040 0.7636E+01 0.6308E+03 0.0000E+00 0.1213E+01 0.1172E+03 0.0000E+00
  14.100 0.5973E+01 0.6157E+03 0.0000E+00 0.1740E+01 0.1287E+03 0.0000E+00
  14.160 0.6462E+01 0.6007E+03 0.0000E+00 0.1166E+01 0.1384E+03 0.0000E+00
  14.220 0.9800E+01 0.5863E+03 0.0000E+00 0.3514E+01 0.1443E+03 0.0000E+00
  14.280 0.1554E+02 0.5754E+03 0.0000E+00 0.4594E+01 0.1422E+03 0.0000E+00
  14.340 0.1634E+02 0.5712E+03 0.0000E+00 0.4545E+01 0.1272E+03 0.0000E+00
  14.400 0.1406E+02 0.5650E+03 0.0000E+00 0.4316E+01 0.1003E+03 0.0000E+00
  14.460 0.1133E+02 0.5476E+03 0.0000E+00 0.4031E+01 0.7232E+02 0.0000E+00
  14.520 0.9746E+01 0.5254E+03 0.0000E+00 0.3722E+01 0.7124E+02 0.0000E+00
  14.580 0.1020E+02 0.5065E+03 0.0000E+00 0.3398E+01 0.1073E+03 0.0000E+00
  14.640 0.9522E+01 0.5088E+03 0.0000E+00 0.3067E+01 0.8805E+02 0.0000E+00
  14.700 0.8314E+01 0.5317E+03 0.0000E+00 0.2747E+01 0.4426E+02 0.0000E+00
  14.760 0.7888E+01 0.4944E+03 0.0000E+00 0.2529E+01 0.5599E+02 0.0000E+00
  14.820 0.7889E+01 0.4364E+03 0.0000E+00 0.2445E+01 0.1261E+03 0.0000E+00
  14.880 0.7984E+01 0.4084E+03 0.0000E+00 0.1673E+01 0.5913E+02 0.0000E+00
  14.940 0.8098E+01 0.3968E+03 0.0000E+00 0.2263E-01 0.5571E+02 0.0000E+00
  15.000 0.8214E+01 0.3892E+03 0.0000E+00 0.4150E+00 0.9566E+02 0.0000E+00
  15.060 0.8324E+01 0.3833E+03 0.0000E+00 0.1909E+01 0.9847E+02 0.0000E+00
  15.120 0.8425E+01 0.3790E+03 0.0000E+00 0.3203E+01 0.8176E+02 0.0000E+00
  15.180 0.8516E+01 0.3754E+03 0.0000E+00 0.3722E+01 0.7049E+02 0.0000E+00
  15.240 0.8608E+01 0.3718E+03 0.0000E+00 0.3407E+01 0.7850E+02 0.0000E+00
  15.300 0.8714E+01 0.3680E+03 0.0000E+00 0.2589E+01 0.8933E+02 0.0000E+00
  15.360 0.8786E+01 0.3636E+03 0.0000E+00 0.1545E+01 0.8743E+02 0.0000E+00
  15.420 0.8740E+01 0.3581E+03 0.0000E+00 0.5027E+00 0.8050E+02 0.0000E+00
  15.480 0.8320E+01 0.3514E+03 0.0000E+00 0.1588E-01 0.7299E+02 0.0000E+00
  15.540 0.6388E+01 0.3441E+03 0.0000E+00 0.7433E-02 0.6543E+02 0.0000E+00
  15.600 0.3027E+01 0.3364E+03 0.0000E+00 0.5026E-01 0.5826E+02 0.0000E+00
  15.660 0.3661E+01 0.3286E+03 0.0000E+00 0.2909E+01 0.5281E+02 0.0000E+00
  15.720 0.5756E+01 0.3207E+03 0.0000E+00 0.3495E+00 0.5488E+02 0.0000E+00
  15.780 0.6341E+01 0.3128E+03 0.0000E+00 0.2372E+01 0.6810E+02 0.0000E+00
  15.840 0.5295E+01 0.3048E+03 0.0000E+00 0.5543E+01 0.7338E+02 0.0000E+00
  15.900 0.3952E+01 0.2970E+03 0.0000E+00 0.4342E+01 0.7258E+02 0.0000E+00
  15.960 0.3056E+01 0.2892E+03 0.0000E+00 0.7285E+00 0.7077E+02 0.0000E+00
  16.020 0.2544E+01 0.2817E+03 0.0000E+00 0.7667E+00 0.6923E+02 0.0000E+00
  16.080 0.2363E+01 0.2751E+03 0.0000E+00 0.4292E+01 0.6825E+02 0.0000E+00
  16.140 0.3028E+01 0.2716E+03 0.0000E+00 0.4989E+01 0.6772E+02 0.0000E+00
  16.200 0.5249E+01 0.2820E+03 0.0000E+00 0.1170E+01 0.6782E+02 0.0000E+00
  16.260 0.7419E+01 0.3102E+03 0.0000E+00 0.2271E-01 0.7022E+02 0.0000E+00
  16.320 0.7925E+01 0.3136E+03 0.0000E+00 0.5236E+01 0.8344E+02 0.0000E+00
  16.380 0.7573E+01 0.3003E+03 0.0000E+00 0.8422E+00 0.8174E+02 0.0000E+00
  16.440 0.7013E+01 0.2837E+03 0.0000E+00 0.0000E+00 0.1978E+02 0.0000E+00
  16.500 0.6386E+01 0.2676E+03 0.0000E+00 0.1450E+01 0.6373E+02 0.0000E+00
  16.560 0.5731E+01 0.2577E+03 0.0000E+00 0.1508E+01 0.9113E+02 0.0000E+00
  16.620 0.5062E+01 0.2611E+03 0.0000E+00 0.9492E-01 0.8473E+02 0.0000E+00
  16.680 0.4389E+01 0.2680E+03 0.0000E+00 0.0000E+00 0.7115E+02 0.0000E+00
  16.740 0.3726E+01 0.2686E+03 0.0000E+00 0.3201E-01 0.5643E+02 0.0000E+00
  16.800 0.3123E+01 0.2658E+03 0.0000E+00 0.3760E+01 0.4377E+02 0.0000E+00
  16.860 0.2802E+01 0.2621E+03 0.0000E+00 0.5246E+00 0.4242E+02 0.0000E+00
  16.920 0.2984E+01 0.2583E+03 0.0000E+00 0.5819E-01 0.5757E+02 0.0000E+00
  16.980 0.3370E+01 0.2543E+03 0.0000E+00 0.6898E+01 0.5885E+02 0.0000E+00
  17.040 0.4413E+01 0.2503E+03 0.0000E+00 0.2938E-01 0.5061E+02 0.0000E+00
  17.100 0.5630E+01 0.2463E+03 0.0000E+00 0.4183E-01 0.4423E+02 0.0000E+00
  17.160 0.6421E+01 0.2422E+03 0.0000E+00 0.0000E+00 0.4592E+02 0.0000E+00
  17.220 0.6355E+01 0.2381E+03 0.0000E+00 0.2393E-01 0.5150E+02 0.0000E+00
  17.280 0.5428E+01 0.2337E+03 0.0000E+00 0.4814E+00 0.5757E+02 0.0000E+00
  17.340 0.4046E+01 0.2287E+03 0.0000E+00 0.9187E-02 0.6211E+02 0.0000E+00
  17.400 0.2709E+01 0.2207E+03 0.0000E+00 0.4347E-01 0.5891E+02 0.0000E+00
  17.460 0.1882E+01 0.2040E+03 0.0000E+00 0.3834E+00 0.4462E+02 0.0000E+00
  17.520 0.1497E+01 0.1846E+03 0.0000E+00 0.7577E+00 0.4044E+02 0.0000E+00
  17.580 0.2161E+01 0.1915E+03 0.0000E+00 0.1008E+01 0.4368E+02 0.0000E+00
  17.640 0.4187E+01 0.2115E+03 0.0000E+00 0.9737E+00 0.4853E+02 0.0000E+00
  17.700 0.4614E+01 0.2269E+03 0.0000E+00 0.7993E+00 0.5354E+02 0.0000E+00
  17.760 0.3926E+01 0.2062E+03 0.0000E+00 0.5907E+00 0.5836E+02 0.0000E+00
  17.820 0.3002E+01 0.1593E+03 0.0000E+00 0.3745E+00 0.6233E+02 0.0000E+00
  17.880 0.2124E+01 0.1947E+03 0.0000E+00 0.1682E+00 0.6182E+02 0.0000E+00
  17.940 0.1810E+01 0.1695E+03 0.0000E+00 0.2068E-01 0.5889E+02 0.0000E+00
  18.000 0.2707E+01 0.2055E+03 0.0000E+00 0.0000E+00 0.5535E+02 0.0000E+00
  18.060 0.3958E+01 0.1977E+03 0.0000E+00 0.1541E-01 0.5162E+02 0.0000E+00
  18.120 0.4724E+01 0.1283E+03 0.0000E+00 0.2067E-01 0.4772E+02 0.0000E+00
  18.180 0.4458E+01 0.1727E+03 0.0000E+00 0.1681E-01 0.4323E+02 0.0000E+00
  18.240 0.3163E+01 0.2022E+03 0.0000E+00 0.1260E-01 0.3866E+02 0.0000E+00
  18.300 0.1395E+01 0.1986E+03 0.0000E+00 0.1088E-01 0.3747E+02 0.0000E+00
  18.360 0.2890E-01 0.1882E+03 0.0000E+00 0.1190E-01 0.3832E+02 0.0000E+00
  18.420 0.0000E+00 0.1770E+03 0.0000E+00 0.1431E-01 0.3983E+02 0.0000E+00
  18.480 0.5397E+00 0.1674E+03 0.0000E+00 0.1706E-01 0.4153E+02 0.0000E+00
  18.540 0.1201E+01 0.1611E+03 0.0000E+00 0.1950E-01 0.4299E+02 0.0000E+00
  18.600 0.1809E+01 0.1580E+03 0.0000E+00 0.2041E-01 0.4407E+02 0.0000E+00
  18.660 0.2290E+01 0.1551E+03 0.0000E+00 0.1862E-01 0.4491E+02 0.0000E+00
  18.720 0.2661E+01 0.1559E+03 0.0000E+00 0.1457E-01 0.4563E+02 0.0000E+00
  18.780 0.2997E+01 0.1733E+03 0.0000E+00 0.1057E-01 0.4629E+02 0.0000E+00
  18.840 0.3285E+01 0.1821E+03 0.0000E+00 0.1000E-01 0.4692E+02 0.0000E+00
  18.900 0.3420E+01 0.1700E+03 0.0000E+00 0.1638E-01 0.4752E+02 0.0000E+00
  18.960 0.3378E+01 0.1523E+03 0.0000E+00 0.2910E-01 0.4810E+02 0.0000E+00
  19.020 0.3222E+01 0.1423E+03 0.0000E+00 0.4304E-01 0.4865E+02 0.0000E+00
  19.080 0.3004E+01 0.1414E+03 0.0000E+00 0.5177E-01 0.4912E+02 0.0000E+00
  19.140 0.2726E+01 0.1444E+03 0.0000E+00 0.4956E-01 0.4941E+02 0.0000E+00
  19.200 0.2282E+01 0.1482E+03 0.0000E+00 0.3810E-01 0.4901E+02 0.0000E+00
  19.260 0.1076E+01 0.1514E+03 0.0000E+00 0.2577E-01 0.4556E+02 0.0000E+00
  19.320 0.8303E+00 0.1479E+03 0.0000E+00 0.1745E-01 0.3955E+02 0.0000E+00
  19.380 0.5178E+01 0.1312E+03 0.0000E+00 0.1336E-01 0.4188E+02 0.0000E+00
  19.440 0.3490E+01 0.1183E+03 0.0000E+00 0.1229E-01 0.4402E+02 0.0000E+00
  19.500 0.1636E+01 0.1240E+03 0.0000E+00 0.1277E-01 0.4432E+02 0.0000E+00
  19.560 0.1169E+01 0.1400E+03 0.0000E+00 0.1389E-01 0.4422E+02 0.0000E+00
  19.620 0.1063E+01 0.1421E+03 0.0000E+00 0.1520E-01 0.4398E+02 0.0000E+00
  19.680 0.1172E+01 0.1234E+03 0.0000E+00 0.1649E-01 0.4366E+02 0.0000E+00
  19.740 0.1371E+01 0.1030E+03 0.0000E+00 0.1752E-01 0.4325E+02 0.0000E+00
  19.800 0.1590E+01 0.1034E+03 0.0000E+00 0.1803E-01 0.4271E+02 0.0000E+00
  19.860 0.1804E+01 0.1141E+03 0.0000E+00 0.1816E-01 0.4197E+02 0.0000E+00
  19.920 0.1974E+01 0.1185E+03 0.0000E+00 0.1791E-01 0.4097E+02 0.0000E+00
  19.980 0.1962E+01 0.1049E+03 0.0000E+00 0.1671E-01 0.3942E+02 0.0000E+00
  20.040 0.1575E+01 0.1071E+03 0.0000E+00 0.1154E-01 0.3626E+02 0.0000E+00
  20.100 0.1014E+01 0.1191E+03 0.0000E+00 0.4088E-02 0.3056E+02 0.0000E+00
  20.160 0.4447E+00 0.1232E+03 0.0000E+00 0.1013E-01 0.2458E+02 0.0000E+00
  20.220 0.1626E-01 0.1131E+03 0.0000E+00 0.1555E-01 0.3035E+02 0.0000E+00
  20.280 0.0000E+00 0.1170E+03 0.0000E+00 0.1787E-01 0.5477E+02 0.0000E+00
  20.340 0.0000E+00 0.1261E+03 0.0000E+00 0.1946E-01 0.6119E+02 0.0000E+00
  20.400 0.0000E+00 0.1265E+03 0.0000E+00 0.2080E-01 0.5441E+02 0.0000E+00
  20.460 0.5495E-01 0.1221E+03 0.0000E+00 0.2201E-01 0.4456E+02 0.0000E+00
  20.520 0.6937E-01 0.1166E+03 0.0000E+00 0.2308E-01 0.3394E+02 0.0000E+00
  20.580 0.6347E-01 0.1111E+03 0.0000E+00 0.2403E-01 0.2342E+02 0.0000E+00
  20.640 0.5298E-01 0.1065E+03 0.0000E+00 0.2478E-01 0.1455E+02 0.0000E+00
  20.700 0.4132E-01 0.1033E+03 0.0000E+00 0.2503E-01 0.1160E+02 0.0000E+00
  20.760 0.2946E-01 0.9867E+02 0.0000E+00 0.2433E-01 0.1809E+02 0.0000E+00
  20.820 0.1815E-01 0.9368E+02 0.0000E+00 0.2314E-01 0.2794E+02 0.0000E+00
  20.880 0.9451E-02 0.9004E+02 0.0000E+00 0.2178E-01 0.3605E+02 0.0000E+00
  20.940 0.6327E-02 0.8905E+02 0.0000E+00 0.2032E-01 0.3965E+02 0.0000E+00
  21.000 0.7435E-02 0.9064E+02 0.0000E+00 0.1879E-01 0.3858E+02 0.0000E+00
  21.060 0.1236E-01 0.9323E+02 0.0000E+00 0.1723E-01 0.3503E+02 0.0000E+00
  21.120 0.2037E-01 0.9388E+02 0.0000E+00 0.1565E-01 0.3174E+02 0.0000E+00
  21.180 0.2853E-01 0.9021E+02 0.0000E+00 0.1411E-01 0.3114E+02 0.0000E+00
  21.240 0.2939E-01 0.8714E+02 0.0000E+00 0.1268E-01 0.3174E+02 0.0000E+00
  21.300 0.1805E-01 0.8515E+02 0.0000E+00 0.1157E-01 0.3207E+02 0.0000E+00
  21.360 0.1402E-01 0.8340E+02 0.0000E+00 0.1119E-01 0.3147E+02 0.0000E+00
  21.420 0.1598E-01 0.8172E+02 0.0000E+00 0.1206E-01 0.3039E+02 0.0000E+00
  21.480 0.1918E-01 0.8001E+02 0.0000E+00 0.1416E-01 0.2925E+02 0.0000E+00
  21.540 0.2244E-01 0.7815E+02 0.0000E+00 0.1684E-01 0.2824E+02 0.0000E+00
  21.600 0.2488E-01 0.7549E+02 0.0000E+00 0.1953E-01 0.2728E+02 0.0000E+00
  21.660 0.2354E-01 0.6894E+02 0.0000E+00 0.2163E-01 0.2632E+02 0.0000E+00
  21.720 0.1606E-01 0.6049E+02 0.0000E+00 0.2225E-01 0.2536E+02 0.0000E+00
  21.780 0.1262E-01 0.6954E+02 0.0000E+00 0.2035E-01 0.2443E+02 0.0000E+00
  21.840 0.1699E-01 0.8572E+02 0.0000E+00 0.1622E-01 0.2360E+02 0.0000E+00
  21.900 0.1862E-01 0.8908E+02 0.0000E+00 0.1144E-01 0.2325E+02 0.0000E+00
  21.960 0.7130E-02 0.7012E+02 0.0000E+00 0.6989E-02 0.2389E+02 0.0000E+00
  22.020 0.0000E+00 0.6471E+02 0.0000E+00 0.3158E-02 0.2498E+02 0.0000E+00
  22.080 0.0000E+00 0.6576E+02 0.0000E+00 0.6403E-03 0.2608E+02 0.0000E+00
  22.140 0.0000E+00 0.6660E+02 0.0000E+00 0.2687E-02 0.2683E+02 0.0000E+00
  22.200 0.2199E-01 0.6747E+02 0.0000E+00 0.2475E-01 0.2601E+02 0.0000E+00
  22.260 0.3892E-01 0.6836E+02 0.0000E+00 0.7169E-01 0.2278E+02 0.0000E+00
  22.320 0.3885E-01 0.6926E+02 0.0000E+00 0.8072E-01 0.2098E+02 0.0000E+00
  22.380 0.3516E-01 0.7013E+02 0.0000E+00 0.6498E-01 0.2036E+02 0.0000E+00
  22.440 0.3080E-01 0.7087E+02 0.0000E+00 0.4469E-01 0.1999E+02 0.0000E+00
  22.500 0.2668E-01 0.7124E+02 0.0000E+00 0.2560E-01 0.1969E+02 0.0000E+00
  22.560 0.2329E-01 0.7003E+02 0.0000E+00 0.1189E-01 0.1941E+02 0.0000E+00
  22.620 0.2105E-01 0.6158E+02 0.0000E+00 0.7936E-02 0.1914E+02 0.0000E+00
  22.680 0.2020E-01 0.5243E+02 0.0000E+00 0.1367E-01 0.1886E+02 0.0000E+00
  22.740 0.2072E-01 0.6785E+02 0.0000E+00 0.2423E-01 0.1858E+02 0.0000E+00
  22.800 0.2229E-01 0.5719E+02 0.0000E+00 0.3282E-01 0.1829E+02 0.0000E+00
  22.860 0.2411E-01 0.6018E+02 0.0000E+00 0.3283E-01 0.1800E+02 0.0000E+00
  22.920 0.2385E-01 0.7356E+02 0.0000E+00 0.2887E-01 0.1770E+02 0.0000E+00
  22.980 0.1863E-01 0.6875E+02 0.0000E+00 0.2447E-01 0.1741E+02 0.0000E+00
  23.040 0.1241E-01 0.4321E+02 0.0000E+00 0.2050E-01 0.1715E+02 0.0000E+00
  23.100 0.1254E-01 0.6190E+02 0.0000E+00 0.1728E-01 0.1699E+02 0.0000E+00
  23.160 0.2303E-01 0.6554E+02 0.0000E+00 0.1500E-01 0.1727E+02 0.0000E+00
  23.220 0.2722E-01 0.5536E+02 0.0000E+00 0.1365E-01 0.1964E+02 0.0000E+00
  23.280 0.2626E-01 0.5137E+02 0.0000E+00 0.1308E-01 0.2296E+02 0.0000E+00
  23.340 0.2416E-01 0.5136E+02 0.0000E+00 0.1308E-01 0.1864E+02 0.0000E+00
  23.400 0.2177E-01 0.5222E+02 0.0000E+00 0.1344E-01 0.1637E+02 0.0000E+00
  23.460 0.1931E-01 0.5330E+02 0.0000E+00 0.1402E-01 0.1679E+02 0.0000E+00
  23.520 0.1685E-01 0.5443E+02 0.0000E+00 0.1470E-01 0.1784E+02 0.0000E+00
  23.580 0.1448E-01 0.5552E+02 0.0000E+00 0.1536E-01 0.1916E+02 0.0000E+00
  23.640 0.1232E-01 0.5646E+02 0.0000E+00 0.1590E-01 0.2076E+02 0.0000E+00
  23.700 0.1066E-01 0.5692E+02 0.0000E+00 0.1619E-01 0.2311E+02 0.0000E+00
  23.760 0.1009E-01 0.5547E+02 0.0000E+00 0.1609E-01 0.2511E+02 0.0000E+00
  23.820 0.1125E-01 0.4530E+02 0.0000E+00 0.1542E-01 0.2374E+02 0.0000E+00
  23.880 0.1354E-01 0.2722E+02 0.0000E+00 0.1409E-01 0.2474E+02 0.0000E+00
  23.940 0.1523E-01 0.3510E+02 0.0000E+00 0.1212E-01 0.2012E+02 0.0000E+00
  24.000 0.1560E-01 0.5092E+02 0.0000E+00 0.9732E-02 0.1224E+02 0.0000E+00
  24.060 0.1511E-01 0.5216E+02 0.0000E+00 0.7472E-02 0.7159E+01 0.0000E+00
  24.120 0.1425E-01 0.4576E+02 0.0000E+00 0.7340E-02 0.9717E+01 0.0000E+00
  24.180 0.1326E-01 0.3886E+02 0.0000E+00 0.1089E-01 0.1538E+02 0.0000E+00
  24.240 0.1235E-01 0.3721E+02 0.0000E+00 0.1279E-01 0.2062E+02 0.0000E+00
  24.300 0.1167E-01 0.4588E+02 0.0000E+00 0.1313E-01 0.2424E+02 0.0000E+00
  24.360 0.1127E-01 0.4795E+02 0.0000E+00 0.1309E-01 0.2571E+02 0.0000E+00
  24.420 0.1106E-01 0.3550E+02 0.0000E+00 0.1291E-01 0.2496E+02 0.0000E+00
  24.480 0.1103E-01 0.4308E+02 0.0000E+00 0.1268E-01 0.2237E+02 0.0000E+00
  24.540 0.1123E-01 0.4809E+02 0.0000E+00 0.1241E-01 0.1850E+02 0.0000E+00
  24.600 0.1158E-01 0.4695E+02 0.0000E+00 0.1212E-01 0.1429E+02 0.0000E+00
  24.660 0.1191E-01 0.4445E+02 0.0000E+00 0.1183E-01 0.1231E+02 0.0000E+00
  24.720 0.1214E-01 0.4161E+02 0.0000E+00 0.1156E-01 0.1584E+02 0.0000E+00
  24.780 0.1231E-01 0.3866E+02 0.0000E+00 0.1131E-01 0.2118E+02 0.0000E+00
  24.840 0.1245E-01 0.3573E+02 0.0000E+00 0.1113E-01 0.2489E+02 0.0000E+00
  24.900 0.1259E-01 0.3304E+02 0.0000E+00 0.1104E-01 0.2507E+02 0.0000E+00
  24.960 0.1277E-01 0.3099E+02 0.0000E+00 0.1111E-01 0.2190E+02 0.0000E+00
  25.020 0.1306E-01 0.2993E+02 0.0000E+00 0.1137E-01 0.1812E+02 0.0000E+00
  25.080 0.1361E-01 0.3260E+02 0.0000E+00 0.1188E-01 0.1664E+02 0.0000E+00
  25.140 0.1461E-01 0.3631E+02 0.0000E+00 0.1264E-01 0.1629E+02 0.0000E+00
  25.200 0.1604E-01 0.3087E+02 0.0000E+00 0.1358E-01 0.1605E+02 0.0000E+00
  25.260 0.1761E-01 0.3765E+02 0.0000E+00 0.1466E-01 0.1575E+02 0.0000E+00
  25.320 0.1902E-01 0.2684E+02 0.0000E+00 0.1580E-01 0.1541E+02 0.0000E+00
  25.380 0.1997E-01 0.2437E+02 0.0000E+00 0.1697E-01 0.1504E+02 0.0000E+00
  25.440 0.2045E-01 0.3028E+02 0.0000E+00 0.1810E-01 0.1466E+02 0.0000E+00
  25.500 0.2063E-01 0.3589E+02 0.0000E+00 0.1914E-01 0.1431E+02 0.0000E+00
  25.560 0.2067E-01 0.3692E+02 0.0000E+00 0.2003E-01 0.1400E+02 0.0000E+00
  25.620 0.2062E-01 0.2992E+02 0.0000E+00 0.2067E-01 0.1375E+02 0.0000E+00
  25.680 0.2053E-01 0.1734E+02 0.0000E+00 0.2095E-01 0.1355E+02 0.0000E+00
  25.740 0.2040E-01 0.1461E+02 0.0000E+00 0.2074E-01 0.1340E+02 0.0000E+00
  25.800 0.2024E-01 0.3109E+02 0.0000E+00 0.1999E-01 0.1328E+02 0.0000E+00
  25.860 0.2006E-01 0.3757E+02 0.0000E+00 0.1879E-01 0.1321E+02 0.0000E+00
  25.920 0.1987E-01 0.4571E+02 0.0000E+00 0.1737E-01 0.1317E+02 0.0000E+00
  25.980 0.1965E-01 0.2113E+02 0.0000E+00 0.1602E-01 0.1308E+02 0.0000E+00
  26.040 0.1942E-01 0.1701E+02 0.0000E+00 0.1497E-01 0.1240E+02 0.0000E+00
  26.100 0.1918E-01 0.2149E+02 0.0000E+00 0.1430E-01 0.1072E+02 0.0000E+00
  26.160 0.1892E-01 0.2443E+02 0.0000E+00 0.1395E-01 0.1038E+02 0.0000E+00
  26.220 0.1865E-01 0.2715E+02 0.0000E+00 0.1380E-01 0.1336E+02 0.0000E+00
  26.280 0.1837E-01 0.2981E+02 0.0000E+00 0.1373E-01 0.1773E+02 0.0000E+00
  26.340 0.1808E-01 0.3215E+02 0.0000E+00 0.1368E-01 0.1858E+02 0.0000E+00
  26.400 0.1779E-01 0.3304E+02 0.0000E+00 0.1362E-01 0.1474E+02 0.0000E+00
  26.460 0.1748E-01 0.3095E+02 0.0000E+00 0.1354E-01 0.1042E+02 0.0000E+00
  26.520 0.1718E-01 0.2751E+02 0.0000E+00 0.1346E-01 0.1047E+02 0.0000E+00
  26.580 0.1687E-01 0.2414E+02 0.0000E+00 0.1338E-01 0.1222E+02 0.0000E+00
  26.640 0.1657E-01 0.2257E+02 0.0000E+00 0.1331E-01 0.1194E+02 0.0000E+00
  26.700 0.1627E-01 0.2428E+02 0.0000E+00 0.1325E-01 0.8225E+01 0.0000E+00
  26.760 0.1597E-01 0.2584E+02 0.0000E+00 0.1320E-01 0.7363E+01 0.0000E+00
  26.820 0.1569E-01 0.2677E+02 0.0000E+00 0.1317E-01 0.8598E+01 0.0000E+00
  26.880 0.1541E-01 0.2751E+02 0.0000E+00 0.1316E-01 0.1020E+02 0.0000E+00
  26.940 0.1515E-01 0.2803E+02 0.0000E+00 0.1318E-01 0.1163E+02 0.0000E+00
  27.000 0.1491E-01 0.2773E+02 0.0000E+00 0.1321E-01 0.1199E+02 0.0000E+00
  27.060 0.1468E-01 0.2600E+02 0.0000E+00 0.1328E-01 0.7459E+01 0.0000E+00
  27.120 0.1447E-01 0.2422E+02 0.0000E+00 0.1337E-01 0.0000E+00 0.0000E+00
  27.180 0.1429E-01 0.2265E+02 0.0000E+00 0.1350E-01 0.2199E-01 0.0000E+00
  27.240 0.1413E-01 0.2118E+02 0.0000E+00 0.1365E-01 0.9575E+01 0.0000E+00
  27.300 0.1399E-01 0.2002E+02 0.0000E+00 0.1384E-01 0.5563E+01 0.0000E+00
  27.360 0.1388E-01 0.1946E+02 0.0000E+00 0.1406E-01 0.2996E+01 0.0000E+00
  27.420 0.1380E-01 0.1922E+02 0.0000E+00 0.1431E-01 0.1441E+02 0.0000E+00
  27.480 0.1374E-01 0.1910E+02 0.0000E+00 0.1459E-01 0.1421E+02 0.0000E+00
  27.540 0.1371E-01 0.1920E+02 0.0000E+00 0.1491E-01 0.6638E+01 0.0000E+00
  27.600 0.1369E-01 0.1972E+02 0.0000E+00 0.1526E-01 0.4890E+01 0.0000E+00
  27.660 0.1371E-01 0.2044E+02 0.0000E+00 0.1563E-01 0.1206E+02 0.0000E+00
  27.720 0.1374E-01 0.2115E+02 0.0000E+00 0.1603E-01 0.8386E+01 0.0000E+00
  27.780 0.1379E-01 0.2181E+02 0.0000E+00 0.1646E-01 0.1207E+02 0.0000E+00
  27.840 0.1385E-01 0.2231E+02 0.0000E+00 0.1690E-01 0.1726E+02 0.0000E+00
  27.900 0.1394E-01 0.2251E+02 0.0000E+00 0.1737E-01 0.1191E+02 0.0000E+00
  27.960 0.1403E-01 0.2205E+02 0.0000E+00 0.1785E-01 0.2641E+01 0.0000E+00
  28.020 0.1414E-01 0.2051E+02 0.0000E+00 0.1835E-01 0.1182E-01 0.0000E+00
  28.080 0.1425E-01 0.1797E+02 0.0000E+00 0.1886E-01 0.9547E+01 0.0000E+00
  28.140 0.1437E-01 0.1523E+02 0.0000E+00 0.1937E-01 0.1303E+02 0.0000E+00
  28.200 0.1450E-01 0.1413E+02 0.0000E+00 0.1989E-01 0.1128E+02 0.0000E+00
  28.260 0.1463E-01 0.1610E+02 0.0000E+00 0.2041E-01 0.8854E+01 0.0000E+00
  28.320 0.1476E-01 0.1703E+02 0.0000E+00 0.2093E-01 0.7186E+01 0.0000E+00
  28.380 0.1490E-01 0.1685E+02 0.0000E+00 0.2142E-01 0.5942E+01 0.0000E+00
  28.440 0.1504E-01 0.1637E+02 0.0000E+00 0.2189E-01 0.4806E+01 0.0000E+00
  28.500 0.1517E-01 0.1608E+02 0.0000E+00 0.2231E-01 0.3762E+01 0.0000E+00
  28.560 0.1531E-01 0.1633E+02 0.0000E+00 0.2267E-01 0.3005E+01 0.0000E+00
  28.620 0.1544E-01 0.1488E+02 0.0000E+00 0.2293E-01 0.2825E+01 0.0000E+00
  28.680 0.1557E-01 0.1239E+02 0.0000E+00 0.2308E-01 0.2935E+01 0.0000E+00
  28.740 0.1570E-01 0.9773E+01 0.0000E+00 0.2312E-01 0.3136E+01 0.0000E+00
  28.800 0.1583E-01 0.7472E+01 0.0000E+00 0.2306E-01 0.3413E+01 0.0000E+00
  28.860 0.1595E-01 0.6654E+01 0.0000E+00 0.2293E-01 0.3883E+01 0.0000E+00
  28.920 0.1606E-01 0.1261E+02 0.0000E+00 0.2276E-01 0.5137E+01 0.0000E+00
  28.980 0.1617E-01 0.2052E+02 0.0000E+00 0.2254E-01 0.7941E+01 0.0000E+00
  29.040 0.1628E-01 0.1156E+02 0.0000E+00 0.2231E-01 0.1093E+02 0.0000E+00
  29.100 0.1638E-01 0.2652E+02 0.0000E+00 0.2206E-01 0.1132E+02 0.0000E+00
  29.160 0.1647E-01 0.1749E+02 0.0000E+00 0.2179E-01 0.7283E+01 0.0000E+00
  29.220 0.1656E-01 0.2131E+02 0.0000E+00 0.2152E-01 0.5025E+01 0.0000E+00
  29.280 0.1664E-01 0.2434E+02 0.0000E+00 0.2125E-01 0.4505E+01 0.0000E+00
  29.340 0.1672E-01 0.2224E+02 0.0000E+00 0.2096E-01 0.4505E+01 0.0000E+00
  29.400 0.1679E-01 0.1961E+02 0.0000E+00 0.2068E-01 0.5199E+01 0.0000E+00
  29.460 0.1685E-01 0.1782E+02 0.0000E+00 0.2039E-01 0.7143E+01 0.0000E+00
  29.520 0.1690E-01 0.1700E+02 0.0000E+00 0.2010E-01 0.9666E+01 0.0000E+00
  29.580 0.1695E-01 0.1643E+02 0.0000E+00 0.1980E-01 0.1225E+02 0.0000E+00
  29.640 0.1699E-01 0.1441E+02 0.0000E+00 0.1950E-01 0.1459E+02 0.0000E+00
  29.700 0.1703E-01 0.1021E+02 0.0000E+00 0.1921E-01 0.1586E+02 0.0000E+00
  29.760 0.1706E-01 0.9098E+01 0.0000E+00 0.1891E-01 0.1223E+02 0.0000E+00
  29.820 0.1708E-01 0.1011E+02 0.0000E+00 0.1860E-01 0.2531E+01 0.0000E+00
  29.880 0.1709E-01 0.1162E+02 0.0000E+00 0.1830E-01 0.2333E+01 0.0000E+00
  29.940 0.1710E-01 0.1330E+02 0.0000E+00 0.1799E-01 0.8461E+01 0.0000E+00
  30.000 0.1710E-01 0.1504E+02 0.0000E+00 0.1769E-01 0.1608E+02 0.0000E+00
