# Copyright 2008, 2009 The GLoBES Team
#
# If you modify this file you have to rename it.
#
# This flux corresponds to the ME beam tune and is taken from
#
# M. Messier http://enrico1.physics.indiana.edu/messier/off-axis/spectra/
#
   0.000 0.6411E-01 0.9950E+00 0.0000E+00 0.1445E-01 0.8435E+00 0.0000E+00
   0.060 0.6312E+00 0.7631E+02 0.0000E+00 0.7198E+00 0.5703E+02 0.0000E+00
   0.120 0.2533E+01 0.4225E+03 0.0000E+00 0.3690E+01 0.2206E+03 0.0000E+00
   0.180 0.5639E+01 0.7937E+03 0.0000E+00 0.1128E+02 0.4084E+03 0.0000E+00
   0.240 0.1000E+02 0.8931E+03 0.0000E+00 0.2127E+02 0.6155E+03 0.0000E+00
   0.300 0.1438E+02 0.8235E+03 0.0000E+00 0.3251E+02 0.8426E+03 0.0000E+00
   0.360 0.1839E+02 0.8664E+03 0.0000E+00 0.4530E+02 0.1106E+04 0.0000E+00
   0.420 0.2227E+02 0.9688E+03 0.0000E+00 0.5880E+02 0.1576E+04 0.0000E+00
   0.480 0.2614E+02 0.1094E+04 0.0000E+00 0.7236E+02 0.2172E+04 0.0000E+00
   0.540 0.3014E+02 0.1258E+04 0.0000E+00 0.8554E+02 0.2884E+04 0.0000E+00
   0.600 0.3441E+02 0.1442E+04 0.0000E+00 0.9689E+02 0.3687E+04 0.0000E+00
   0.660 0.3878E+02 0.1629E+04 0.0000E+00 0.1051E+03 0.4529E+04 0.0000E+00
   0.720 0.4306E+02 0.1817E+04 0.0000E+00 0.1136E+03 0.5400E+04 0.0000E+00
   0.780 0.4694E+02 0.2012E+04 0.0000E+00 0.1226E+03 0.6469E+04 0.0000E+00
   0.840 0.5007E+02 0.2201E+04 0.0000E+00 0.1317E+03 0.7762E+04 0.0000E+00
   0.900 0.5206E+02 0.2325E+04 0.0000E+00 0.1404E+03 0.8208E+04 0.0000E+00
   0.960 0.5074E+02 0.2390E+04 0.0000E+00 0.1487E+03 0.8345E+04 0.0000E+00
   1.020 0.4787E+02 0.2400E+04 0.0000E+00 0.1560E+03 0.8848E+04 0.0000E+00
   1.080 0.4527E+02 0.2372E+04 0.0000E+00 0.1611E+03 0.9669E+04 0.0000E+00
   1.140 0.4573E+02 0.2376E+04 0.0000E+00 0.1632E+03 0.1081E+05 0.0000E+00
   1.200 0.4944E+02 0.2440E+04 0.0000E+00 0.1659E+03 0.1228E+05 0.0000E+00
   1.260 0.4547E+02 0.2396E+04 0.0000E+00 0.1876E+03 0.1420E+05 0.0000E+00
   1.320 0.4213E+02 0.2366E+04 0.0000E+00 0.2115E+03 0.1654E+05 0.0000E+00
   1.380 0.4782E+02 0.2369E+04 0.0000E+00 0.1698E+03 0.1971E+05 0.0000E+00
   1.440 0.5070E+02 0.2388E+04 0.0000E+00 0.2210E+03 0.2415E+05 0.0000E+00
   1.500 0.5045E+02 0.2405E+04 0.0000E+00 0.2421E+03 0.2946E+05 0.0000E+00
   1.560 0.4951E+02 0.2340E+04 0.0000E+00 0.2300E+03 0.3773E+05 0.0000E+00
   1.620 0.4837E+02 0.2231E+04 0.0000E+00 0.2431E+03 0.4819E+05 0.0000E+00
   1.680 0.4712E+02 0.2121E+04 0.0000E+00 0.2688E+03 0.5994E+05 0.0000E+00
   1.740 0.4564E+02 0.2053E+04 0.0000E+00 0.1968E+03 0.7361E+05 0.0000E+00
   1.800 0.4373E+02 0.2079E+04 0.0000E+00 0.2267E+03 0.8542E+05 0.0000E+00
   1.860 0.4168E+02 0.2139E+04 0.0000E+00 0.2603E+03 0.9436E+05 0.0000E+00
   1.920 0.3984E+02 0.2177E+04 0.0000E+00 0.2690E+03 0.9851E+05 0.0000E+00
   1.980 0.3907E+02 0.2164E+04 0.0000E+00 0.2721E+03 0.9689E+05 0.0000E+00
   2.040 0.3992E+02 0.2098E+04 0.0000E+00 0.2727E+03 0.9031E+05 0.0000E+00
   2.100 0.3979E+02 0.2003E+04 0.0000E+00 0.2702E+03 0.7919E+05 0.0000E+00
   2.160 0.3908E+02 0.1898E+04 0.0000E+00 0.2662E+03 0.6719E+05 0.0000E+00
   2.220 0.3886E+02 0.1800E+04 0.0000E+00 0.2618E+03 0.5421E+05 0.0000E+00
   2.280 0.4006E+02 0.1729E+04 0.0000E+00 0.2571E+03 0.4342E+05 0.0000E+00
   2.340 0.4346E+02 0.1705E+04 0.0000E+00 0.2519E+03 0.3380E+05 0.0000E+00
   2.400 0.4766E+02 0.1714E+04 0.0000E+00 0.2449E+03 0.2628E+05 0.0000E+00
   2.460 0.4943E+02 0.1713E+04 0.0000E+00 0.2297E+03 0.2122E+05 0.0000E+00
   2.520 0.4770E+02 0.1684E+04 0.0000E+00 0.2090E+03 0.1679E+05 0.0000E+00
   2.580 0.4393E+02 0.1635E+04 0.0000E+00 0.2209E+03 0.1387E+05 0.0000E+00
   2.640 0.3971E+02 0.1579E+04 0.0000E+00 0.2480E+03 0.1158E+05 0.0000E+00
   2.700 0.3750E+02 0.1524E+04 0.0000E+00 0.2591E+03 0.9578E+04 0.0000E+00
   2.760 0.4013E+02 0.1488E+04 0.0000E+00 0.2368E+03 0.8100E+04 0.0000E+00
   2.820 0.4485E+02 0.1484E+04 0.0000E+00 0.2203E+03 0.6937E+04 0.0000E+00
   2.880 0.4899E+02 0.1458E+04 0.0000E+00 0.2124E+03 0.5970E+04 0.0000E+00
   2.940 0.4841E+02 0.1414E+04 0.0000E+00 0.2065E+03 0.5113E+04 0.0000E+00
   3.000 0.4038E+02 0.1366E+04 0.0000E+00 0.2011E+03 0.4376E+04 0.0000E+00
   3.060 0.3648E+02 0.1318E+04 0.0000E+00 0.1962E+03 0.3839E+04 0.0000E+00
   3.120 0.3604E+02 0.1269E+04 0.0000E+00 0.1924E+03 0.3412E+04 0.0000E+00
   3.180 0.3637E+02 0.1219E+04 0.0000E+00 0.1929E+03 0.3035E+04 0.0000E+00
   3.240 0.3688E+02 0.1170E+04 0.0000E+00 0.2133E+03 0.2699E+04 0.0000E+00
   3.300 0.3740E+02 0.1121E+04 0.0000E+00 0.2413E+03 0.2419E+04 0.0000E+00
   3.360 0.3769E+02 0.1072E+04 0.0000E+00 0.1913E+03 0.2225E+04 0.0000E+00
   3.420 0.3748E+02 0.1024E+04 0.0000E+00 0.1548E+03 0.2085E+04 0.0000E+00
   3.480 0.3702E+02 0.9793E+03 0.0000E+00 0.1417E+03 0.1985E+04 0.0000E+00
   3.540 0.3650E+02 0.9453E+03 0.0000E+00 0.1349E+03 0.1934E+04 0.0000E+00
   3.600 0.3596E+02 0.9389E+03 0.0000E+00 0.1307E+03 0.1911E+04 0.0000E+00
   3.660 0.3542E+02 0.9629E+03 0.0000E+00 0.1278E+03 0.1866E+04 0.0000E+00
   3.720 0.3488E+02 0.9961E+03 0.0000E+00 0.1257E+03 0.1784E+04 0.0000E+00
   3.780 0.3436E+02 0.1015E+04 0.0000E+00 0.1252E+03 0.1683E+04 0.0000E+00
   3.840 0.3386E+02 0.9574E+03 0.0000E+00 0.1302E+03 0.1584E+04 0.0000E+00
   3.900 0.3344E+02 0.8219E+03 0.0000E+00 0.1420E+03 0.1498E+04 0.0000E+00
   3.960 0.3328E+02 0.8501E+03 0.0000E+00 0.1442E+03 0.1433E+04 0.0000E+00
   4.020 0.3416E+02 0.8387E+03 0.0000E+00 0.1399E+03 0.1389E+04 0.0000E+00
   4.080 0.3995E+02 0.7817E+03 0.0000E+00 0.1341E+03 0.1364E+04 0.0000E+00
   4.140 0.4825E+02 0.7267E+03 0.0000E+00 0.1278E+03 0.1350E+04 0.0000E+00
   4.200 0.3644E+02 0.6903E+03 0.0000E+00 0.1215E+03 0.1337E+04 0.0000E+00
   4.260 0.2692E+02 0.6875E+03 0.0000E+00 0.1152E+03 0.1290E+04 0.0000E+00
   4.320 0.3577E+02 0.7166E+03 0.0000E+00 0.1091E+03 0.1202E+04 0.0000E+00
   4.380 0.2875E+02 0.7550E+03 0.0000E+00 0.1040E+03 0.1200E+04 0.0000E+00
   4.440 0.2863E+02 0.7534E+03 0.0000E+00 0.1029E+03 0.1210E+04 0.0000E+00
   4.500 0.2377E+02 0.6913E+03 0.0000E+00 0.1096E+03 0.1207E+04 0.0000E+00
   4.560 0.2461E+02 0.6836E+03 0.0000E+00 0.1164E+03 0.1193E+04 0.0000E+00
   4.620 0.3019E+02 0.6386E+03 0.0000E+00 0.1053E+03 0.1166E+04 0.0000E+00
   4.680 0.3500E+02 0.5923E+03 0.0000E+00 0.8316E+02 0.1125E+04 0.0000E+00
   4.740 0.3136E+02 0.5637E+03 0.0000E+00 0.1191E+03 0.1076E+04 0.0000E+00
   4.800 0.1906E+02 0.5689E+03 0.0000E+00 0.1281E+03 0.1028E+04 0.0000E+00
   4.860 0.2278E+02 0.6029E+03 0.0000E+00 0.1108E+03 0.9910E+03 0.0000E+00
   4.920 0.1604E+02 0.5764E+03 0.0000E+00 0.9124E+02 0.1013E+04 0.0000E+00
   4.980 0.1307E+02 0.5828E+03 0.0000E+00 0.8708E+02 0.1085E+04 0.0000E+00
   5.040 0.2903E+02 0.5492E+03 0.0000E+00 0.1074E+03 0.9947E+03 0.0000E+00
   5.100 0.2869E+02 0.5253E+03 0.0000E+00 0.1094E+03 0.9094E+03 0.0000E+00
   5.160 0.2586E+02 0.5186E+03 0.0000E+00 0.9925E+02 0.9144E+03 0.0000E+00
   5.220 0.2587E+02 0.5159E+03 0.0000E+00 0.9644E+02 0.1000E+04 0.0000E+00
   5.280 0.2643E+02 0.5141E+03 0.0000E+00 0.1081E+03 0.9884E+03 0.0000E+00
   5.340 0.2696E+02 0.5127E+03 0.0000E+00 0.1064E+03 0.9675E+03 0.0000E+00
   5.400 0.2721E+02 0.5111E+03 0.0000E+00 0.9412E+02 0.9647E+03 0.0000E+00
   5.460 0.2732E+02 0.5089E+03 0.0000E+00 0.8143E+02 0.9656E+03 0.0000E+00
   5.520 0.2740E+02 0.5037E+03 0.0000E+00 0.7984E+02 0.9674E+03 0.0000E+00
   5.580 0.2747E+02 0.4924E+03 0.0000E+00 0.1004E+03 0.9694E+03 0.0000E+00
   5.640 0.2753E+02 0.4780E+03 0.0000E+00 0.1135E+03 0.9715E+03 0.0000E+00
   5.700 0.2760E+02 0.4629E+03 0.0000E+00 0.9050E+02 0.9736E+03 0.0000E+00
   5.760 0.2766E+02 0.4476E+03 0.0000E+00 0.7409E+02 0.9755E+03 0.0000E+00
   5.820 0.2775E+02 0.4323E+03 0.0000E+00 0.9738E+02 0.9769E+03 0.0000E+00
   5.880 0.2789E+02 0.4171E+03 0.0000E+00 0.1020E+03 0.9771E+03 0.0000E+00
   5.940 0.2826E+02 0.4020E+03 0.0000E+00 0.9375E+02 0.9720E+03 0.0000E+00
   6.000 0.2975E+02 0.3861E+03 0.0000E+00 0.9175E+02 0.9563E+03 0.0000E+00
   6.060 0.3189E+02 0.3782E+03 0.0000E+00 0.9367E+02 0.9353E+03 0.0000E+00
   6.120 0.2926E+02 0.4027E+03 0.0000E+00 0.9639E+02 0.9130E+03 0.0000E+00
   6.180 0.2448E+02 0.4400E+03 0.0000E+00 0.9913E+02 0.8903E+03 0.0000E+00
   6.240 0.2225E+02 0.4615E+03 0.0000E+00 0.1013E+03 0.8676E+03 0.0000E+00
   6.300 0.2512E+02 0.4435E+03 0.0000E+00 0.1005E+03 0.8456E+03 0.0000E+00
   6.360 0.2639E+02 0.4083E+03 0.0000E+00 0.9399E+02 0.8269E+03 0.0000E+00
   6.420 0.2608E+02 0.3763E+03 0.0000E+00 0.8816E+02 0.8232E+03 0.0000E+00
   6.480 0.2593E+02 0.3541E+03 0.0000E+00 0.8949E+02 0.8504E+03 0.0000E+00
   6.540 0.2806E+02 0.3374E+03 0.0000E+00 0.9447E+02 0.8905E+03 0.0000E+00
   6.600 0.3455E+02 0.3249E+03 0.0000E+00 0.1005E+03 0.9284E+03 0.0000E+00
   6.660 0.3885E+02 0.3268E+03 0.0000E+00 0.1077E+03 0.9551E+03 0.0000E+00
   6.720 0.3380E+02 0.3498E+03 0.0000E+00 0.1122E+03 0.9564E+03 0.0000E+00
   6.780 0.2451E+02 0.3586E+03 0.0000E+00 0.1031E+03 0.9164E+03 0.0000E+00
   6.840 0.1603E+02 0.3560E+03 0.0000E+00 0.9563E+02 0.8469E+03 0.0000E+00
   6.900 0.1585E+02 0.3509E+03 0.0000E+00 0.9149E+02 0.8203E+03 0.0000E+00
   6.960 0.2593E+02 0.3452E+03 0.0000E+00 0.8809E+02 0.8542E+03 0.0000E+00
   7.020 0.2196E+02 0.3392E+03 0.0000E+00 0.8501E+02 0.7719E+03 0.0000E+00
   7.080 0.1842E+02 0.3331E+03 0.0000E+00 0.8280E+02 0.8044E+03 0.0000E+00
   7.140 0.1837E+02 0.3270E+03 0.0000E+00 0.8201E+02 0.8766E+03 0.0000E+00
   7.200 0.1903E+02 0.3209E+03 0.0000E+00 0.7939E+02 0.8538E+03 0.0000E+00
   7.260 0.1968E+02 0.3150E+03 0.0000E+00 0.7367E+02 0.8056E+03 0.0000E+00
   7.320 0.1955E+02 0.3094E+03 0.0000E+00 0.7385E+02 0.8046E+03 0.0000E+00
   7.380 0.1859E+02 0.3048E+03 0.0000E+00 0.7735E+02 0.8235E+03 0.0000E+00
   7.440 0.1976E+02 0.3045E+03 0.0000E+00 0.8037E+02 0.8333E+03 0.0000E+00
   7.500 0.2217E+02 0.3241E+03 0.0000E+00 0.8129E+02 0.8199E+03 0.0000E+00
   7.560 0.2463E+02 0.3435E+03 0.0000E+00 0.7994E+02 0.7888E+03 0.0000E+00
   7.620 0.2660E+02 0.2881E+03 0.0000E+00 0.7729E+02 0.7805E+03 0.0000E+00
   7.680 0.2740E+02 0.3211E+03 0.0000E+00 0.7424E+02 0.8287E+03 0.0000E+00
   7.740 0.2625E+02 0.3359E+03 0.0000E+00 0.7198E+02 0.8559E+03 0.0000E+00
   7.800 0.2330E+02 0.2363E+03 0.0000E+00 0.7481E+02 0.8614E+03 0.0000E+00
   7.860 0.2012E+02 0.2459E+03 0.0000E+00 0.8648E+02 0.8618E+03 0.0000E+00
   7.920 0.1844E+02 0.2697E+03 0.0000E+00 0.8557E+02 0.8608E+03 0.0000E+00
   7.980 0.1794E+02 0.2738E+03 0.0000E+00 0.5960E+02 0.8605E+03 0.0000E+00
   8.040 0.1857E+02 0.2738E+03 0.0000E+00 0.5854E+02 0.8628E+03 0.0000E+00
   8.100 0.1957E+02 0.2730E+03 0.0000E+00 0.7258E+02 0.8663E+03 0.0000E+00
   8.160 0.2017E+02 0.2720E+03 0.0000E+00 0.8269E+02 0.8702E+03 0.0000E+00
   8.220 0.1860E+02 0.2710E+03 0.0000E+00 0.8080E+02 0.8743E+03 0.0000E+00
   8.280 0.1331E+02 0.2700E+03 0.0000E+00 0.7034E+02 0.8786E+03 0.0000E+00
   8.340 0.1311E+02 0.2691E+03 0.0000E+00 0.6338E+02 0.8831E+03 0.0000E+00
   8.400 0.2072E+02 0.2682E+03 0.0000E+00 0.6463E+02 0.8875E+03 0.0000E+00
   8.460 0.1432E+02 0.2674E+03 0.0000E+00 0.6887E+02 0.8838E+03 0.0000E+00
   8.520 0.1282E+02 0.2665E+03 0.0000E+00 0.6994E+02 0.8564E+03 0.0000E+00
   8.580 0.1685E+02 0.2655E+03 0.0000E+00 0.6936E+02 0.8255E+03 0.0000E+00
   8.640 0.2030E+02 0.2646E+03 0.0000E+00 0.6863E+02 0.8147E+03 0.0000E+00
   8.700 0.2018E+02 0.2637E+03 0.0000E+00 0.6797E+02 0.8379E+03 0.0000E+00
   8.760 0.1828E+02 0.2627E+03 0.0000E+00 0.6737E+02 0.8715E+03 0.0000E+00
   8.820 0.1607E+02 0.2617E+03 0.0000E+00 0.6680E+02 0.8675E+03 0.0000E+00
   8.880 0.1432E+02 0.2605E+03 0.0000E+00 0.6624E+02 0.8367E+03 0.0000E+00
   8.940 0.1374E+02 0.2588E+03 0.0000E+00 0.6563E+02 0.8447E+03 0.0000E+00
   9.000 0.1370E+02 0.2560E+03 0.0000E+00 0.6490E+02 0.9008E+03 0.0000E+00
   9.060 0.1370E+02 0.2526E+03 0.0000E+00 0.6394E+02 0.8993E+03 0.0000E+00
   9.120 0.1360E+02 0.2491E+03 0.0000E+00 0.6275E+02 0.8096E+03 0.0000E+00
   9.180 0.1334E+02 0.2455E+03 0.0000E+00 0.6142E+02 0.8708E+03 0.0000E+00
   9.240 0.1296E+02 0.2419E+03 0.0000E+00 0.6004E+02 0.8121E+03 0.0000E+00
   9.300 0.1301E+02 0.2383E+03 0.0000E+00 0.5866E+02 0.8627E+03 0.0000E+00
   9.360 0.1711E+02 0.2346E+03 0.0000E+00 0.5735E+02 0.7787E+03 0.0000E+00
   9.420 0.2925E+02 0.2309E+03 0.0000E+00 0.5639E+02 0.8506E+03 0.0000E+00
   9.480 0.3734E+02 0.2271E+03 0.0000E+00 0.5614E+02 0.9312E+03 0.0000E+00
   9.540 0.3102E+02 0.2233E+03 0.0000E+00 0.5625E+02 0.8229E+03 0.0000E+00
   9.600 0.1657E+02 0.2194E+03 0.0000E+00 0.5644E+02 0.7878E+03 0.0000E+00
   9.660 0.1147E+02 0.2153E+03 0.0000E+00 0.5665E+02 0.8110E+03 0.0000E+00
   9.720 0.1778E+02 0.2103E+03 0.0000E+00 0.5688E+02 0.8141E+03 0.0000E+00
   9.780 0.2167E+02 0.2013E+03 0.0000E+00 0.5710E+02 0.8048E+03 0.0000E+00
   9.840 0.1697E+02 0.1893E+03 0.0000E+00 0.5731E+02 0.7956E+03 0.0000E+00
   9.900 0.1023E+02 0.1939E+03 0.0000E+00 0.5750E+02 0.7908E+03 0.0000E+00
   9.960 0.9567E+01 0.2080E+03 0.0000E+00 0.5760E+02 0.7909E+03 0.0000E+00
  10.020 0.1069E+02 0.2231E+03 0.0000E+00 0.5739E+02 0.7940E+03 0.0000E+00
  10.080 0.9713E+01 0.2337E+03 0.0000E+00 0.5651E+02 0.7986E+03 0.0000E+00
  10.140 0.8768E+01 0.2342E+03 0.0000E+00 0.5532E+02 0.8039E+03 0.0000E+00
  10.200 0.8162E+01 0.2294E+03 0.0000E+00 0.5404E+02 0.8096E+03 0.0000E+00
  10.260 0.7558E+01 0.2229E+03 0.0000E+00 0.5273E+02 0.8155E+03 0.0000E+00
  10.320 0.6912E+01 0.2141E+03 0.0000E+00 0.5141E+02 0.8216E+03 0.0000E+00
  10.380 0.6238E+01 0.1971E+03 0.0000E+00 0.5008E+02 0.8277E+03 0.0000E+00
  10.440 0.5590E+01 0.1793E+03 0.0000E+00 0.4875E+02 0.8338E+03 0.0000E+00
  10.500 0.5168E+01 0.1940E+03 0.0000E+00 0.4742E+02 0.8400E+03 0.0000E+00
  10.560 0.5248E+01 0.1869E+03 0.0000E+00 0.4608E+02 0.8460E+03 0.0000E+00
  10.620 0.5578E+01 0.1663E+03 0.0000E+00 0.4474E+02 0.8519E+03 0.0000E+00
  10.680 0.5994E+01 0.1687E+03 0.0000E+00 0.4340E+02 0.8577E+03 0.0000E+00
  10.740 0.6512E+01 0.1903E+03 0.0000E+00 0.4204E+02 0.8633E+03 0.0000E+00
  10.800 0.7246E+01 0.1476E+03 0.0000E+00 0.4067E+02 0.8688E+03 0.0000E+00
  10.860 0.8266E+01 0.1778E+03 0.0000E+00 0.3924E+02 0.8740E+03 0.0000E+00
  10.920 0.9144E+01 0.2354E+03 0.0000E+00 0.3763E+02 0.8792E+03 0.0000E+00
  10.980 0.9081E+01 0.2472E+03 0.0000E+00 0.3529E+02 0.8847E+03 0.0000E+00
  11.040 0.8119E+01 0.2070E+03 0.0000E+00 0.2950E+02 0.8910E+03 0.0000E+00
  11.100 0.7909E+01 0.1560E+03 0.0000E+00 0.2266E+02 0.8975E+03 0.0000E+00
  11.160 0.9808E+01 0.1390E+03 0.0000E+00 0.2989E+02 0.8967E+03 0.0000E+00
  11.220 0.1072E+02 0.1384E+03 0.0000E+00 0.3375E+02 0.8770E+03 0.0000E+00
  11.280 0.1069E+02 0.1395E+03 0.0000E+00 0.3304E+02 0.8439E+03 0.0000E+00
  11.340 0.1043E+02 0.1416E+03 0.0000E+00 0.3158E+02 0.8408E+03 0.0000E+00
  11.400 0.1009E+02 0.1545E+03 0.0000E+00 0.3098E+02 0.9048E+03 0.0000E+00
  11.460 0.9709E+01 0.1906E+03 0.0000E+00 0.3259E+02 0.9399E+03 0.0000E+00
  11.520 0.9309E+01 0.2226E+03 0.0000E+00 0.3521E+02 0.9313E+03 0.0000E+00
  11.580 0.8895E+01 0.2248E+03 0.0000E+00 0.3778E+02 0.9074E+03 0.0000E+00
  11.640 0.8473E+01 0.1956E+03 0.0000E+00 0.3935E+02 0.8814E+03 0.0000E+00
  11.700 0.8048E+01 0.1527E+03 0.0000E+00 0.3624E+02 0.8622E+03 0.0000E+00
  11.760 0.7628E+01 0.1290E+03 0.0000E+00 0.2625E+02 0.8595E+03 0.0000E+00
  11.820 0.7232E+01 0.1596E+03 0.0000E+00 0.2145E+02 0.8652E+03 0.0000E+00
  11.880 0.6926E+01 0.2031E+03 0.0000E+00 0.2082E+02 0.8738E+03 0.0000E+00
  11.940 0.7002E+01 0.2240E+03 0.0000E+00 0.2192E+02 0.8854E+03 0.0000E+00
  12.000 0.7862E+01 0.2183E+03 0.0000E+00 0.2718E+02 0.9028E+03 0.0000E+00
  12.060 0.9085E+01 0.2005E+03 0.0000E+00 0.3202E+02 0.9277E+03 0.0000E+00
  12.120 0.1034E+02 0.1852E+03 0.0000E+00 0.1825E+02 0.9504E+03 0.0000E+00
  12.180 0.1145E+02 0.1717E+03 0.0000E+00 0.1599E+02 0.9520E+03 0.0000E+00
  12.240 0.1186E+02 0.1608E+03 0.0000E+00 0.2366E+02 0.9286E+03 0.0000E+00
  12.300 0.1094E+02 0.1562E+03 0.0000E+00 0.3304E+02 0.8942E+03 0.0000E+00
  12.360 0.9395E+01 0.1543E+03 0.0000E+00 0.4097E+02 0.8644E+03 0.0000E+00
  12.420 0.7826E+01 0.1528E+03 0.0000E+00 0.4025E+02 0.8518E+03 0.0000E+00
  12.480 0.6815E+01 0.1511E+03 0.0000E+00 0.2594E+02 0.8582E+03 0.0000E+00
  12.540 0.7044E+01 0.1490E+03 0.0000E+00 0.1900E+02 0.8751E+03 0.0000E+00
  12.600 0.7831E+01 0.1465E+03 0.0000E+00 0.1831E+02 0.8949E+03 0.0000E+00
  12.660 0.8650E+01 0.1433E+03 0.0000E+00 0.1890E+02 0.9118E+03 0.0000E+00
  12.720 0.9283E+01 0.1384E+03 0.0000E+00 0.1943E+02 0.9189E+03 0.0000E+00
  12.780 0.9460E+01 0.1270E+03 0.0000E+00 0.1830E+02 0.9083E+03 0.0000E+00
  12.840 0.8666E+01 0.1124E+03 0.0000E+00 0.1377E+02 0.8834E+03 0.0000E+00
  12.900 0.6307E+01 0.1245E+03 0.0000E+00 0.9518E+01 0.8679E+03 0.0000E+00
  12.960 0.2832E+01 0.1464E+03 0.0000E+00 0.9313E+01 0.8917E+03 0.0000E+00
  13.020 0.9693E+00 0.1594E+03 0.0000E+00 0.1117E+02 0.9309E+03 0.0000E+00
  13.080 0.3280E+01 0.1606E+03 0.0000E+00 0.1351E+02 0.9123E+03 0.0000E+00
  13.140 0.5234E+01 0.1545E+03 0.0000E+00 0.1594E+02 0.8366E+03 0.0000E+00
  13.200 0.6263E+01 0.1447E+03 0.0000E+00 0.1831E+02 0.8903E+03 0.0000E+00
  13.260 0.7041E+01 0.1324E+03 0.0000E+00 0.2034E+02 0.8403E+03 0.0000E+00
  13.320 0.7654E+01 0.1146E+03 0.0000E+00 0.2106E+02 0.8359E+03 0.0000E+00
  13.380 0.7857E+01 0.1007E+03 0.0000E+00 0.1580E+02 0.8412E+03 0.0000E+00
  13.440 0.7276E+01 0.1290E+03 0.0000E+00 0.4249E+01 0.8323E+03 0.0000E+00
  13.500 0.6314E+01 0.1666E+03 0.0000E+00 0.5850E+01 0.8202E+03 0.0000E+00
  13.560 0.5278E+01 0.1778E+03 0.0000E+00 0.9772E+01 0.8074E+03 0.0000E+00
  13.620 0.4313E+01 0.1748E+03 0.0000E+00 0.1214E+02 0.7943E+03 0.0000E+00
  13.680 0.3558E+01 0.1685E+03 0.0000E+00 0.1417E+02 0.7811E+03 0.0000E+00
  13.740 0.2986E+01 0.1611E+03 0.0000E+00 0.1599E+02 0.7679E+03 0.0000E+00
  13.800 0.2811E+01 0.1534E+03 0.0000E+00 0.1720E+02 0.7549E+03 0.0000E+00
  13.860 0.4352E+01 0.1454E+03 0.0000E+00 0.1308E+02 0.7424E+03 0.0000E+00
  13.920 0.7312E+01 0.1373E+03 0.0000E+00 0.6450E+01 0.7330E+03 0.0000E+00
  13.980 0.5078E+01 0.1291E+03 0.0000E+00 0.1948E+02 0.7275E+03 0.0000E+00
  14.040 0.3868E+01 0.1210E+03 0.0000E+00 0.9625E+01 0.7167E+03 0.0000E+00
  14.100 0.7072E+01 0.1130E+03 0.0000E+00 0.7592E+01 0.7021E+03 0.0000E+00
  14.160 0.2585E+01 0.1057E+03 0.0000E+00 0.1433E+02 0.6857E+03 0.0000E+00
  14.220 0.2879E+01 0.1012E+03 0.0000E+00 0.1538E+02 0.6653E+03 0.0000E+00
  14.280 0.6032E+01 0.1023E+03 0.0000E+00 0.1029E+02 0.6372E+03 0.0000E+00
  14.340 0.6456E+01 0.1056E+03 0.0000E+00 0.1758E+02 0.6054E+03 0.0000E+00
  14.400 0.5329E+01 0.1060E+03 0.0000E+00 0.1002E+02 0.5727E+03 0.0000E+00
  14.460 0.3903E+01 0.9962E+02 0.0000E+00 0.2281E+02 0.5400E+03 0.0000E+00
  14.520 0.2597E+01 0.9056E+02 0.0000E+00 0.8845E+01 0.5081E+03 0.0000E+00
  14.580 0.2213E+01 0.8384E+02 0.0000E+00 0.1395E+02 0.4822E+03 0.0000E+00
  14.640 0.3433E+01 0.9096E+02 0.0000E+00 0.1741E+02 0.4849E+03 0.0000E+00
  14.700 0.2559E+01 0.1179E+03 0.0000E+00 0.1375E+02 0.5366E+03 0.0000E+00
  14.760 0.2981E-01 0.1262E+03 0.0000E+00 0.8800E+01 0.5280E+03 0.0000E+00
  14.820 0.5016E+01 0.1210E+03 0.0000E+00 0.4635E+01 0.4245E+03 0.0000E+00
  14.880 0.2477E+01 0.1129E+03 0.0000E+00 0.5615E+01 0.4695E+03 0.0000E+00
  14.940 0.4236E+01 0.1047E+03 0.0000E+00 0.1004E+02 0.4306E+03 0.0000E+00
  15.000 0.1920E+01 0.9957E+02 0.0000E+00 0.4535E+01 0.4267E+03 0.0000E+00
  15.060 0.2036E+01 0.1013E+03 0.0000E+00 0.1111E+02 0.3888E+03 0.0000E+00
  15.120 0.3993E+01 0.1063E+03 0.0000E+00 0.1665E+01 0.3824E+03 0.0000E+00
  15.180 0.1911E+01 0.1114E+03 0.0000E+00 0.4444E+01 0.4038E+03 0.0000E+00
  15.240 0.1493E+01 0.1156E+03 0.0000E+00 0.7084E+01 0.4179E+03 0.0000E+00
  15.300 0.1649E+02 0.1160E+03 0.0000E+00 0.5891E+01 0.4039E+03 0.0000E+00
  15.360 0.1890E-01 0.1005E+03 0.0000E+00 0.4481E+01 0.3916E+03 0.0000E+00
  15.420 0.3519E+00 0.7209E+02 0.0000E+00 0.4201E+01 0.4107E+03 0.0000E+00
  15.480 0.7564E+01 0.8104E+02 0.0000E+00 0.4528E+01 0.3889E+03 0.0000E+00
  15.540 0.8414E+01 0.7332E+02 0.0000E+00 0.5092E+01 0.3428E+03 0.0000E+00
  15.600 0.6376E+01 0.6973E+02 0.0000E+00 0.5890E+01 0.3118E+03 0.0000E+00
  15.660 0.3792E+01 0.1100E+03 0.0000E+00 0.6672E+01 0.3183E+03 0.0000E+00
  15.720 0.1466E+01 0.1485E+03 0.0000E+00 0.6893E+01 0.3248E+03 0.0000E+00
  15.780 0.1016E+01 0.1424E+03 0.0000E+00 0.5912E+01 0.3250E+03 0.0000E+00
  15.840 0.2314E+01 0.9471E+02 0.0000E+00 0.4396E+01 0.3234E+03 0.0000E+00
  15.900 0.6991E+00 0.6326E+02 0.0000E+00 0.2967E+01 0.3206E+03 0.0000E+00
  15.960 0.2734E+01 0.9680E+02 0.0000E+00 0.2501E+01 0.3166E+03 0.0000E+00
  16.020 0.9169E+00 0.1048E+03 0.0000E+00 0.3469E+01 0.3114E+03 0.0000E+00
  16.080 0.6284E+00 0.8893E+02 0.0000E+00 0.3335E+01 0.3053E+03 0.0000E+00
  16.140 0.2069E+01 0.7870E+02 0.0000E+00 0.2997E+01 0.2985E+03 0.0000E+00
  16.200 0.2796E+01 0.9235E+02 0.0000E+00 0.3887E+01 0.2913E+03 0.0000E+00
  16.260 0.1633E+01 0.1184E+03 0.0000E+00 0.5339E+01 0.2843E+03 0.0000E+00
  16.320 0.7295E+00 0.1330E+03 0.0000E+00 0.6610E+01 0.2781E+03 0.0000E+00
  16.380 0.2930E+00 0.1052E+03 0.0000E+00 0.6497E+01 0.2722E+03 0.0000E+00
  16.440 0.2718E-01 0.8740E+02 0.0000E+00 0.4140E+01 0.2663E+03 0.0000E+00
  16.500 0.0000E+00 0.8256E+02 0.0000E+00 0.2761E+01 0.2604E+03 0.0000E+00
  16.560 0.0000E+00 0.8054E+02 0.0000E+00 0.2277E+01 0.2545E+03 0.0000E+00
  16.620 0.0000E+00 0.7927E+02 0.0000E+00 0.1980E+01 0.2486E+03 0.0000E+00
  16.680 0.0000E+00 0.7836E+02 0.0000E+00 0.1710E+01 0.2428E+03 0.0000E+00
  16.740 0.0000E+00 0.7767E+02 0.0000E+00 0.1383E+01 0.2373E+03 0.0000E+00
  16.800 0.4453E-02 0.7714E+02 0.0000E+00 0.7369E+00 0.2331E+03 0.0000E+00
  16.860 0.0000E+00 0.7671E+02 0.0000E+00 0.1343E-01 0.2312E+03 0.0000E+00
  16.920 0.0000E+00 0.7634E+02 0.0000E+00 0.9975E+00 0.2285E+03 0.0000E+00
  16.980 0.1353E+00 0.7600E+02 0.0000E+00 0.2861E+01 0.2238E+03 0.0000E+00
  17.040 0.7015E+00 0.7567E+02 0.0000E+00 0.4711E+01 0.2249E+03 0.0000E+00
  17.100 0.1348E+01 0.7537E+02 0.0000E+00 0.6108E+01 0.2294E+03 0.0000E+00
  17.160 0.1521E+01 0.7512E+02 0.0000E+00 0.6441E+01 0.2346E+03 0.0000E+00
  17.220 0.1431E+01 0.7511E+02 0.0000E+00 0.5010E+01 0.2387E+03 0.0000E+00
  17.280 0.1276E+01 0.7561E+02 0.0000E+00 0.2133E+01 0.2349E+03 0.0000E+00
  17.340 0.1094E+01 0.7643E+02 0.0000E+00 0.1781E-01 0.2153E+03 0.0000E+00
  17.400 0.8783E+00 0.7773E+02 0.0000E+00 0.1142E+01 0.1953E+03 0.0000E+00
  17.460 0.5314E+00 0.8127E+02 0.0000E+00 0.2911E+01 0.1892E+03 0.0000E+00
  17.520 0.2681E-01 0.8374E+02 0.0000E+00 0.2908E+01 0.1977E+03 0.0000E+00
  17.580 0.0000E+00 0.7063E+02 0.0000E+00 0.2151E+01 0.2122E+03 0.0000E+00
  17.640 0.0000E+00 0.6565E+02 0.0000E+00 0.1290E+01 0.2232E+03 0.0000E+00
  17.700 0.5457E-01 0.8105E+02 0.0000E+00 0.4691E+00 0.2230E+03 0.0000E+00
  17.760 0.7800E+00 0.6087E+02 0.0000E+00 0.2106E-01 0.2125E+03 0.0000E+00
  17.820 0.1301E+01 0.4191E+02 0.0000E+00 0.3643E+00 0.2070E+03 0.0000E+00
  17.880 0.1297E+01 0.7015E+02 0.0000E+00 0.9192E+00 0.2180E+03 0.0000E+00
  17.940 0.1057E+01 0.8574E+02 0.0000E+00 0.6882E+00 0.2179E+03 0.0000E+00
  18.000 0.7612E+00 0.4716E+02 0.0000E+00 0.0000E+00 0.2087E+03 0.0000E+00
  18.060 0.4524E+00 0.4502E+02 0.0000E+00 0.6903E-01 0.1971E+03 0.0000E+00
  18.120 0.1495E+00 0.4334E+02 0.0000E+00 0.1370E+01 0.1850E+03 0.0000E+00
  18.180 0.0000E+00 0.4014E+02 0.0000E+00 0.2521E+01 0.1728E+03 0.0000E+00
  18.240 0.0000E+00 0.3972E+02 0.0000E+00 0.2968E+01 0.1616E+03 0.0000E+00
  18.300 0.8869E-02 0.4020E+02 0.0000E+00 0.1992E+01 0.1549E+03 0.0000E+00
  18.360 0.3157E-01 0.4188E+02 0.0000E+00 0.7151E+00 0.1567E+03 0.0000E+00
  18.420 0.4818E-01 0.4819E+02 0.0000E+00 0.1702E+00 0.1596E+03 0.0000E+00
  18.480 0.3421E+00 0.6256E+02 0.0000E+00 0.2872E-01 0.1616E+03 0.0000E+00
  18.540 0.7436E+00 0.6913E+02 0.0000E+00 0.2316E-02 0.1626E+03 0.0000E+00
  18.600 0.1010E+01 0.5498E+02 0.0000E+00 0.8037E-02 0.1589E+03 0.0000E+00
  18.660 0.9366E+00 0.4641E+02 0.0000E+00 0.1382E-01 0.1487E+03 0.0000E+00
  18.720 0.6985E+00 0.4427E+02 0.0000E+00 0.1807E-01 0.1440E+03 0.0000E+00
  18.780 0.4282E+00 0.4331E+02 0.0000E+00 0.2218E-01 0.1436E+03 0.0000E+00
  18.840 0.1743E+00 0.4168E+02 0.0000E+00 0.2479E-01 0.1441E+03 0.0000E+00
  18.900 0.3285E-01 0.3810E+02 0.0000E+00 0.2393E-01 0.1449E+03 0.0000E+00
  18.960 0.1290E+00 0.3425E+02 0.0000E+00 0.2124E-01 0.1458E+03 0.0000E+00
  19.020 0.3390E+00 0.3329E+02 0.0000E+00 0.1790E-01 0.1467E+03 0.0000E+00
  19.080 0.5706E+00 0.4638E+02 0.0000E+00 0.1425E-01 0.1473E+03 0.0000E+00
  19.140 0.7907E+00 0.7494E+02 0.0000E+00 0.1058E-01 0.1465E+03 0.0000E+00
  19.200 0.9403E+00 0.7030E+02 0.0000E+00 0.7946E-02 0.1427E+03 0.0000E+00
  19.260 0.7705E+00 0.5256E+02 0.0000E+00 0.7778E-02 0.1380E+03 0.0000E+00
  19.320 0.1736E+00 0.4849E+02 0.0000E+00 0.8693E-02 0.1349E+03 0.0000E+00
  19.380 0.2271E-01 0.5182E+02 0.0000E+00 0.9708E-02 0.1397E+03 0.0000E+00
  19.440 0.2902E-01 0.5593E+02 0.0000E+00 0.1063E-01 0.1514E+03 0.0000E+00
  19.500 0.1741E-01 0.5885E+02 0.0000E+00 0.1146E-01 0.1405E+03 0.0000E+00
  19.560 0.9144E-02 0.6026E+02 0.0000E+00 0.1229E-01 0.1240E+03 0.0000E+00
  19.620 0.2106E-01 0.6072E+02 0.0000E+00 0.1340E-01 0.1208E+03 0.0000E+00
  19.680 0.1913E+00 0.6071E+02 0.0000E+00 0.1535E-01 0.1284E+03 0.0000E+00
  19.740 0.5571E+00 0.6040E+02 0.0000E+00 0.1861E-01 0.1321E+03 0.0000E+00
  19.800 0.3726E+00 0.5980E+02 0.0000E+00 0.2192E-01 0.1254E+03 0.0000E+00
  19.860 0.3872E-01 0.5860E+02 0.0000E+00 0.2259E-01 0.1128E+03 0.0000E+00
  19.920 0.2542E-01 0.5520E+02 0.0000E+00 0.2008E-01 0.1012E+03 0.0000E+00
  19.980 0.4405E-01 0.4184E+02 0.0000E+00 0.1635E-01 0.9666E+02 0.0000E+00
  20.040 0.3163E-01 0.2293E+02 0.0000E+00 0.1381E-01 0.9577E+02 0.0000E+00
  20.100 0.2855E-01 0.3718E+02 0.0000E+00 0.1465E-01 0.9594E+02 0.0000E+00
  20.160 0.3120E-01 0.4331E+02 0.0000E+00 0.1905E-01 0.9699E+02 0.0000E+00
  20.220 0.2064E-01 0.3886E+02 0.0000E+00 0.2527E-01 0.9840E+02 0.0000E+00
  20.280 0.9750E-02 0.3523E+02 0.0000E+00 0.3128E-01 0.9989E+02 0.0000E+00
  20.340 0.3488E-01 0.3769E+02 0.0000E+00 0.3349E-01 0.1013E+03 0.0000E+00
  20.400 0.7789E-01 0.4299E+02 0.0000E+00 0.2831E-01 0.1027E+03 0.0000E+00
  20.460 0.7327E-01 0.4783E+02 0.0000E+00 0.2017E-01 0.1037E+03 0.0000E+00
  20.520 0.1956E-01 0.4745E+02 0.0000E+00 0.1276E-01 0.1036E+03 0.0000E+00
  20.580 0.0000E+00 0.3883E+02 0.0000E+00 0.7900E-02 0.9788E+02 0.0000E+00
  20.640 0.0000E+00 0.3655E+02 0.0000E+00 0.5760E-02 0.9204E+02 0.0000E+00
  20.700 0.1413E-01 0.3926E+02 0.0000E+00 0.5207E-02 0.9970E+02 0.0000E+00
  20.760 0.2871E-01 0.3502E+02 0.0000E+00 0.5350E-02 0.7675E+02 0.0000E+00
  20.820 0.8530E-02 0.2891E+02 0.0000E+00 0.5772E-02 0.8493E+02 0.0000E+00
  20.880 0.0000E+00 0.2837E+02 0.0000E+00 0.6296E-02 0.9786E+02 0.0000E+00
  20.940 0.0000E+00 0.3832E+02 0.0000E+00 0.6852E-02 0.7853E+02 0.0000E+00
  21.000 0.0000E+00 0.5522E+02 0.0000E+00 0.7424E-02 0.6744E+02 0.0000E+00
  21.060 0.2201E-01 0.5722E+02 0.0000E+00 0.8033E-02 0.6673E+02 0.0000E+00
  21.120 0.3261E-01 0.3627E+02 0.0000E+00 0.8718E-02 0.6864E+02 0.0000E+00
  21.180 0.2994E-01 0.4188E+02 0.0000E+00 0.9518E-02 0.7257E+02 0.0000E+00
  21.240 0.2237E-01 0.2273E+02 0.0000E+00 0.1052E-01 0.8349E+02 0.0000E+00
  21.300 0.1846E-01 0.2043E+02 0.0000E+00 0.1120E-01 0.9377E+02 0.0000E+00
  21.360 0.2532E-01 0.3065E+02 0.0000E+00 0.0000E+00 0.8120E+02 0.0000E+00
  21.420 0.2611E-01 0.3566E+02 0.0000E+00 0.0000E+00 0.8939E+02 0.0000E+00
  21.480 0.8570E-02 0.3306E+02 0.0000E+00 0.1120E-01 0.5952E+02 0.0000E+00
  21.540 0.1237E-02 0.2907E+02 0.0000E+00 0.8530E+00 0.7452E+02 0.0000E+00
  21.600 0.2473E-02 0.3063E+02 0.0000E+00 0.9476E+00 0.8160E+02 0.0000E+00
  21.660 0.5367E-02 0.3490E+02 0.0000E+00 0.5667E+00 0.7243E+02 0.0000E+00
  21.720 0.8408E-02 0.3944E+02 0.0000E+00 0.1933E+00 0.6128E+02 0.0000E+00
  21.780 0.1115E-01 0.4375E+02 0.0000E+00 0.8315E-02 0.5667E+02 0.0000E+00
  21.840 0.1317E-01 0.4736E+02 0.0000E+00 0.2942E-01 0.6013E+02 0.0000E+00
  21.900 0.1313E-01 0.4846E+02 0.0000E+00 0.1621E+00 0.5357E+02 0.0000E+00
  21.960 0.9412E-02 0.4457E+02 0.0000E+00 0.3255E+00 0.5774E+02 0.0000E+00
  22.020 0.5279E-02 0.3834E+02 0.0000E+00 0.4703E+00 0.6218E+02 0.0000E+00
  22.080 0.8910E-02 0.3197E+02 0.0000E+00 0.5603E+00 0.6382E+02 0.0000E+00
  22.140 0.2001E-01 0.2742E+02 0.0000E+00 0.5649E+00 0.6486E+02 0.0000E+00
  22.200 0.1133E-01 0.2694E+02 0.0000E+00 0.4664E+00 0.6569E+02 0.0000E+00
  22.260 0.1040E-01 0.2847E+02 0.0000E+00 0.2719E+00 0.6625E+02 0.0000E+00
  22.320 0.1484E-01 0.3063E+02 0.0000E+00 0.1812E-01 0.6584E+02 0.0000E+00
  22.380 0.1497E-01 0.3371E+02 0.0000E+00 0.0000E+00 0.6380E+02 0.0000E+00
  22.440 0.1118E-01 0.3627E+02 0.0000E+00 0.0000E+00 0.6198E+02 0.0000E+00
  22.500 0.8733E-02 0.3324E+02 0.0000E+00 0.0000E+00 0.6054E+02 0.0000E+00
  22.560 0.9583E-02 0.3117E+02 0.0000E+00 0.7153E-01 0.5917E+02 0.0000E+00
  22.620 0.1175E-01 0.3068E+02 0.0000E+00 0.2829E+00 0.5781E+02 0.0000E+00
  22.680 0.1337E-01 0.3053E+02 0.0000E+00 0.3133E+00 0.5645E+02 0.0000E+00
  22.740 0.1359E-01 0.3044E+02 0.0000E+00 0.2382E+00 0.5508E+02 0.0000E+00
  22.800 0.1103E-01 0.3034E+02 0.0000E+00 0.1366E+00 0.5370E+02 0.0000E+00
  22.860 0.1060E+00 0.3011E+02 0.0000E+00 0.5323E-01 0.5228E+02 0.0000E+00
  22.920 0.1036E+01 0.2925E+02 0.0000E+00 0.9738E-02 0.5072E+02 0.0000E+00
  22.980 0.2194E+01 0.2763E+02 0.0000E+00 0.8619E-02 0.4887E+02 0.0000E+00
  23.040 0.8664E-02 0.2731E+02 0.0000E+00 0.3458E-01 0.4688E+02 0.0000E+00
  23.100 0.0000E+00 0.2783E+02 0.0000E+00 0.5460E-01 0.4485E+02 0.0000E+00
  23.160 0.7166E+00 0.2854E+02 0.0000E+00 0.1212E-01 0.4280E+02 0.0000E+00
  23.220 0.1151E+01 0.2928E+02 0.0000E+00 0.0000E+00 0.4075E+02 0.0000E+00
  23.280 0.8618E+00 0.2994E+02 0.0000E+00 0.0000E+00 0.3874E+02 0.0000E+00
  23.340 0.4138E+00 0.3041E+02 0.0000E+00 0.0000E+00 0.3695E+02 0.0000E+00
  23.400 0.1350E+00 0.3077E+02 0.0000E+00 0.0000E+00 0.3624E+02 0.0000E+00
  23.460 0.1074E-01 0.3110E+02 0.0000E+00 0.0000E+00 0.3773E+02 0.0000E+00
  23.520 0.0000E+00 0.3135E+02 0.0000E+00 0.0000E+00 0.3962E+02 0.0000E+00
  23.580 0.1068E-01 0.3144E+02 0.0000E+00 0.1218E-01 0.4039E+02 0.0000E+00
  23.640 0.3085E-01 0.3081E+02 0.0000E+00 0.1329E-01 0.3982E+02 0.0000E+00
  23.700 0.3420E-01 0.2696E+02 0.0000E+00 0.1072E-01 0.3854E+02 0.0000E+00
  23.760 0.2258E-01 0.2112E+02 0.0000E+00 0.1013E-01 0.3741E+02 0.0000E+00
  23.820 0.1147E-01 0.2574E+02 0.0000E+00 0.1122E-01 0.3720E+02 0.0000E+00
  23.880 0.8242E-02 0.2835E+02 0.0000E+00 0.1295E-01 0.3742E+02 0.0000E+00
  23.940 0.1001E-01 0.2773E+02 0.0000E+00 0.1483E-01 0.3767E+02 0.0000E+00
  24.000 0.1341E-01 0.2646E+02 0.0000E+00 0.1663E-01 0.3774E+02 0.0000E+00
  24.060 0.1689E-01 0.2511E+02 0.0000E+00 0.1821E-01 0.3694E+02 0.0000E+00
  24.120 0.1985E-01 0.2388E+02 0.0000E+00 0.1949E-01 0.3659E+02 0.0000E+00
  24.180 0.2210E-01 0.2299E+02 0.0000E+00 0.2040E-01 0.3993E+02 0.0000E+00
  24.240 0.2364E-01 0.2284E+02 0.0000E+00 0.2089E-01 0.3642E+02 0.0000E+00
  24.300 0.2454E-01 0.2393E+02 0.0000E+00 0.2096E-01 0.3021E+02 0.0000E+00
  24.360 0.2491E-01 0.2616E+02 0.0000E+00 0.2061E-01 0.3254E+02 0.0000E+00
  24.420 0.2485E-01 0.2873E+02 0.0000E+00 0.1988E-01 0.4428E+02 0.0000E+00
  24.480 0.2447E-01 0.2980E+02 0.0000E+00 0.1881E-01 0.3598E+02 0.0000E+00
  24.540 0.2392E-01 0.2719E+02 0.0000E+00 0.1746E-01 0.3353E+02 0.0000E+00
  24.600 0.2348E-01 0.2299E+02 0.0000E+00 0.1591E-01 0.3856E+02 0.0000E+00
  24.660 0.2344E-01 0.1910E+02 0.0000E+00 0.1424E-01 0.4431E+02 0.0000E+00
  24.720 0.2385E-01 0.1671E+02 0.0000E+00 0.1260E-01 0.4643E+02 0.0000E+00
  24.780 0.2441E-01 0.1703E+02 0.0000E+00 0.1122E-01 0.3887E+02 0.0000E+00
  24.840 0.2488E-01 0.2024E+02 0.0000E+00 0.1064E-01 0.2632E+02 0.0000E+00
  24.900 0.2507E-01 0.2616E+02 0.0000E+00 0.1212E-01 0.2393E+02 0.0000E+00
  24.960 0.2471E-01 0.3351E+02 0.0000E+00 0.1826E-01 0.2757E+02 0.0000E+00
  25.020 0.2351E-01 0.2869E+02 0.0000E+00 0.3103E-01 0.3196E+02 0.0000E+00
  25.080 0.2148E-01 0.1740E+02 0.0000E+00 0.4356E-01 0.3385E+02 0.0000E+00
  25.140 0.1898E-01 0.3729E+02 0.0000E+00 0.4277E-01 0.3004E+02 0.0000E+00
  25.200 0.1630E-01 0.1223E+02 0.0000E+00 0.3022E-01 0.2438E+02 0.0000E+00
  25.260 0.1372E-01 0.2536E+02 0.0000E+00 0.2166E-01 0.2276E+02 0.0000E+00
  25.320 0.1161E-01 0.1693E+02 0.0000E+00 0.2373E-01 0.2847E+02 0.0000E+00
  25.380 0.1039E-01 0.2619E+02 0.0000E+00 0.3145E-01 0.3093E+02 0.0000E+00
  25.440 0.1010E-01 0.2682E+02 0.0000E+00 0.3941E-01 0.3038E+02 0.0000E+00
  25.500 0.1035E-01 0.2369E+02 0.0000E+00 0.4441E-01 0.2917E+02 0.0000E+00
  25.560 0.1083E-01 0.2235E+02 0.0000E+00 0.4491E-01 0.2780E+02 0.0000E+00
  25.620 0.1142E-01 0.2139E+02 0.0000E+00 0.4101E-01 0.2637E+02 0.0000E+00
  25.680 0.1206E-01 0.2050E+02 0.0000E+00 0.3420E-01 0.2497E+02 0.0000E+00
  25.740 0.1270E-01 0.1968E+02 0.0000E+00 0.2652E-01 0.2372E+02 0.0000E+00
  25.800 0.1327E-01 0.1902E+02 0.0000E+00 0.1971E-01 0.2316E+02 0.0000E+00
  25.860 0.1347E-01 0.1865E+02 0.0000E+00 0.1463E-01 0.2588E+02 0.0000E+00
  25.920 0.1289E-01 0.1843E+02 0.0000E+00 0.1131E-01 0.2787E+02 0.0000E+00
  25.980 0.1204E-01 0.1826E+02 0.0000E+00 0.9355E-02 0.1333E+02 0.0000E+00
  26.040 0.1135E-01 0.1810E+02 0.0000E+00 0.8335E-02 0.1297E+02 0.0000E+00
  26.100 0.1106E-01 0.1794E+02 0.0000E+00 0.7918E-02 0.3006E+02 0.0000E+00
  26.160 0.1121E-01 0.1779E+02 0.0000E+00 0.7883E-02 0.3429E+02 0.0000E+00
  26.220 0.1168E-01 0.1765E+02 0.0000E+00 0.8094E-02 0.2939E+02 0.0000E+00
  26.280 0.1235E-01 0.1751E+02 0.0000E+00 0.8476E-02 0.2348E+02 0.0000E+00
  26.340 0.1318E-01 0.1737E+02 0.0000E+00 0.9003E-02 0.2208E+02 0.0000E+00
  26.400 0.1411E-01 0.1724E+02 0.0000E+00 0.9714E-02 0.2394E+02 0.0000E+00
  26.460 0.1500E-01 0.1712E+02 0.0000E+00 0.1076E-01 0.1393E+02 0.0000E+00
  26.520 0.1551E-01 0.1705E+02 0.0000E+00 0.1249E-01 0.1841E+02 0.0000E+00
  26.580 0.1520E-01 0.1716E+02 0.0000E+00 0.1539E-01 0.3102E+02 0.0000E+00
  26.640 0.1419E-01 0.1762E+02 0.0000E+00 0.1944E-01 0.3329E+02 0.0000E+00
  26.700 0.1314E-01 0.1825E+02 0.0000E+00 0.2410E-01 0.1714E+02 0.0000E+00
  26.760 0.1280E-01 0.1889E+02 0.0000E+00 0.2897E-01 0.1409E+02 0.0000E+00
  26.820 0.1378E-01 0.1948E+02 0.0000E+00 0.3383E-01 0.2009E+02 0.0000E+00
  26.880 0.1642E-01 0.1981E+02 0.0000E+00 0.3857E-01 0.2507E+02 0.0000E+00
  26.940 0.1951E-01 0.1891E+02 0.0000E+00 0.4310E-01 0.2507E+02 0.0000E+00
  27.000 0.1311E-01 0.1663E+02 0.0000E+00 0.4735E-01 0.2057E+02 0.0000E+00
  27.060 0.0000E+00 0.1717E+02 0.0000E+00 0.5125E-01 0.1810E+02 0.0000E+00
  27.120 0.0000E+00 0.1945E+02 0.0000E+00 0.5470E-01 0.1780E+02 0.0000E+00
  27.180 0.0000E+00 0.2190E+02 0.0000E+00 0.5762E-01 0.6475E+01 0.0000E+00
  27.240 0.0000E+00 0.2340E+02 0.0000E+00 0.5988E-01 0.1595E+02 0.0000E+00
  27.300 0.1713E-01 0.2278E+02 0.0000E+00 0.6137E-01 0.2354E+02 0.0000E+00
  27.360 0.5260E+00 0.2111E+02 0.0000E+00 0.6193E-01 0.1122E+02 0.0000E+00
  27.420 0.5311E+00 0.1918E+02 0.0000E+00 0.6141E-01 0.1632E+02 0.0000E+00
  27.480 0.1387E-01 0.1712E+02 0.0000E+00 0.5969E-01 0.6599E+01 0.0000E+00
  27.540 0.0000E+00 0.1489E+02 0.0000E+00 0.5666E-01 0.1422E+02 0.0000E+00
  27.600 0.0000E+00 0.1188E+02 0.0000E+00 0.5226E-01 0.2530E+02 0.0000E+00
  27.660 0.0000E+00 0.8887E+01 0.0000E+00 0.4651E-01 0.1821E+02 0.0000E+00
  27.720 0.0000E+00 0.1073E+02 0.0000E+00 0.3950E-01 0.1342E+02 0.0000E+00
  27.780 0.0000E+00 0.1503E+02 0.0000E+00 0.3137E-01 0.1307E+02 0.0000E+00
  27.840 0.3038E-01 0.1928E+02 0.0000E+00 0.2234E-01 0.1354E+02 0.0000E+00
  27.900 0.2546E+00 0.2248E+02 0.0000E+00 0.1271E-01 0.1381E+02 0.0000E+00
  27.960 0.4632E+00 0.2448E+02 0.0000E+00 0.2910E-02 0.1240E+02 0.0000E+00
  28.020 0.6281E+00 0.2552E+02 0.0000E+00 0.0000E+00 0.7776E+01 0.0000E+00
  28.080 0.6944E+00 0.2501E+02 0.0000E+00 0.0000E+00 0.4291E+01 0.0000E+00
  28.140 0.6008E+00 0.2186E+02 0.0000E+00 0.0000E+00 0.6565E+01 0.0000E+00
  28.200 0.3907E+00 0.1821E+02 0.0000E+00 0.0000E+00 0.1085E+02 0.0000E+00
  28.260 0.2022E+00 0.1590E+02 0.0000E+00 0.0000E+00 0.1394E+02 0.0000E+00
  28.320 0.9795E-01 0.1516E+02 0.0000E+00 0.0000E+00 0.1530E+02 0.0000E+00
  28.380 0.5039E-01 0.1533E+02 0.0000E+00 0.0000E+00 0.1558E+02 0.0000E+00
  28.440 0.2893E-01 0.1580E+02 0.0000E+00 0.4387E-03 0.1533E+02 0.0000E+00
  28.500 0.1911E-01 0.1620E+02 0.0000E+00 0.3365E-02 0.1482E+02 0.0000E+00
  28.560 0.1488E-01 0.1641E+02 0.0000E+00 0.5714E-02 0.1417E+02 0.0000E+00
  28.620 0.1354E-01 0.1651E+02 0.0000E+00 0.7603E-02 0.1344E+02 0.0000E+00
  28.680 0.1384E-01 0.1657E+02 0.0000E+00 0.9147E-02 0.1266E+02 0.0000E+00
  28.740 0.1513E-01 0.1660E+02 0.0000E+00 0.1044E-01 0.1187E+02 0.0000E+00
  28.800 0.1706E-01 0.1664E+02 0.0000E+00 0.1153E-01 0.1108E+02 0.0000E+00
  28.860 0.1942E-01 0.1666E+02 0.0000E+00 0.1248E-01 0.1036E+02 0.0000E+00
  28.920 0.2209E-01 0.1669E+02 0.0000E+00 0.1332E-01 0.9987E+01 0.0000E+00
  28.980 0.2502E-01 0.1671E+02 0.0000E+00 0.1406E-01 0.1033E+02 0.0000E+00
  29.040 0.2814E-01 0.1671E+02 0.0000E+00 0.1471E-01 0.1102E+02 0.0000E+00
  29.100 0.3142E-01 0.1665E+02 0.0000E+00 0.1531E-01 0.1187E+02 0.0000E+00
  29.160 0.3484E-01 0.1633E+02 0.0000E+00 0.1584E-01 0.1306E+02 0.0000E+00
  29.220 0.3837E-01 0.1547E+02 0.0000E+00 0.1632E-01 0.1442E+02 0.0000E+00
  29.280 0.4199E-01 0.1436E+02 0.0000E+00 0.1676E-01 0.1435E+02 0.0000E+00
  29.340 0.4569E-01 0.1319E+02 0.0000E+00 0.1716E-01 0.1342E+02 0.0000E+00
  29.400 0.4946E-01 0.1203E+02 0.0000E+00 0.1753E-01 0.1225E+02 0.0000E+00
  29.460 0.5328E-01 0.1091E+02 0.0000E+00 0.1786E-01 0.1079E+02 0.0000E+00
  29.520 0.5714E-01 0.9941E+01 0.0000E+00 0.1817E-01 0.8146E+01 0.0000E+00
  29.580 0.6104E-01 0.9284E+01 0.0000E+00 0.1845E-01 0.6558E+01 0.0000E+00
  29.640 0.6496E-01 0.8951E+01 0.0000E+00 0.1870E-01 0.1288E+02 0.0000E+00
  29.700 0.6891E-01 0.9023E+01 0.0000E+00 0.1893E-01 0.1461E+02 0.0000E+00
  29.760 0.7288E-01 0.9482E+01 0.0000E+00 0.1914E-01 0.1233E+02 0.0000E+00
  29.820 0.7687E-01 0.1017E+02 0.0000E+00 0.1934E-01 0.9289E+01 0.0000E+00
  29.880 0.8087E-01 0.1098E+02 0.0000E+00 0.1951E-01 0.6511E+01 0.0000E+00
  29.940 0.8488E-01 0.1184E+02 0.0000E+00 0.1967E-01 0.5677E+01 0.0000E+00
  30.000 0.8890E-01 0.1273E+02 0.0000E+00 0.1981E-01 0.8948E+01 0.0000E+00
